"Time (s) Run #1";"Angle (rad) Run #1";"Position (m) Run #1";"Magnetic Field Strength (100X) (T) Run #1";"Time (s) Run #3";"Angle (rad) Run #3";"Position (m) Run #3";"Magnetic Field Strength (100X) (T) Run #3";"Time (s) Run #4";"Angle (rad) Run #4";"Position (m) Run #4";"Magnetic Field Strength (100X) (T) Run #4";"Time (s) Run #5";"Angle (rad) Run #5";"Position (m) Run #5";"Magnetic Field Strength (100X) (T) Run #5";"Time (s) Run #6";"Angle (rad) Run #6";"Position (m) Run #6";"Magnetic Field Strength (100X) (T) Run #6";"Time (s) Run #7";"Angle (rad) Run #7";"Position (m) Run #7";"Magnetic Field Strength (100X) (T) Run #7";"Time (s) Run #8";"Angle (rad) Run #8";"Position (m) Run #8";"Magnetic Field Strength (100X) (T) Run #8"
0.000;0.003;8.7500E-5;2.5E-5;0.000;0.049;0.0014;1.7E-5;0.000;-0.008;-2.1875E-4;3.1E-6;0.000;0.000;0.0000;3.7E-5;0.000;-0.003;-8.7500E-5;3.2E-6;0.000;-0.005;-1.3125E-4;4.7E-5;0.000;0.000;0.0000;8.8E-7
0.050;0.002;4.3750E-5;;0.100;0.049;0.0014;1.7E-5;0.100;-0.008;-2.1875E-4;3.1E-6;0.100;0.000;0.0000;3.7E-5;0.100;-0.003;-8.7500E-5;3.2E-6;0.100;-0.005;-1.3125E-4;4.7E-5;0.100;0.000;0.0000;8.6E-7
0.100;0.002;4.3750E-5;2.5E-5;0.200;0.049;0.0014;1.7E-5;0.200;-0.008;-2.1875E-4;3.1E-6;0.200;0.000;0.0000;3.7E-5;0.200;-0.005;-1.3125E-4;3.2E-6;0.200;-0.006;-1.7500E-4;4.7E-5;0.200;0.000;0.0000;8.3E-7
0.150;0.002;4.3750E-5;;0.300;0.049;0.0014;1.7E-5;0.300;-0.008;-2.1875E-4;3.1E-6;0.300;0.000;0.0000;3.7E-5;0.300;-0.005;-1.3125E-4;3.3E-6;0.300;-0.006;-1.7500E-4;4.7E-5;0.300;0.000;0.0000;8.4E-7
0.200;0.002;4.3750E-5;2.5E-5;0.400;0.049;0.0014;1.7E-5;0.400;-0.008;-2.1875E-4;3.0E-6;0.400;-0.002;-4.3750E-5;3.7E-5;0.400;-0.006;-1.7500E-4;3.2E-6;0.400;-0.006;-1.7500E-4;4.7E-5;0.400;0.000;0.0000;8.7E-7
0.250;0.002;4.3750E-5;;0.500;0.049;0.0014;1.7E-5;0.500;-0.008;-2.1875E-4;3.1E-6;0.500;-0.002;-4.3750E-5;3.7E-5;0.500;-0.006;-1.7500E-4;3.2E-6;0.500;-0.006;-1.7500E-4;4.7E-5;0.500;0.000;0.0000;8.1E-7
0.300;0.002;4.3750E-5;2.5E-5;0.600;0.049;0.0014;1.7E-5;0.600;-0.008;-2.1875E-4;3.1E-6;0.600;-0.002;-4.3750E-5;3.7E-5;0.600;-0.006;-1.7500E-4;3.3E-6;0.600;-0.008;-2.1875E-4;4.7E-5;0.600;0.000;0.0000;8.1E-7
0.350;0.002;4.3750E-5;;0.700;0.049;0.0014;1.7E-5;0.700;-0.009;-2.6250E-4;3.1E-6;0.700;-0.002;-4.3750E-5;3.7E-5;0.700;-0.008;-2.1875E-4;3.3E-6;0.700;-0.008;-2.1875E-4;4.7E-5;0.700;0.000;0.0000;8.4E-7
0.400;0.002;4.3750E-5;2.5E-5;0.800;0.047;0.0013;1.7E-5;0.800;-0.009;-2.6250E-4;3.1E-6;0.800;-0.003;-8.7500E-5;3.7E-5;0.800;-0.013;-3.5000E-4;3.4E-6;0.800;-0.008;-2.1875E-4;4.7E-5;0.800;0.000;0.0000;8.4E-7
0.450;0.002;4.3750E-5;;0.900;0.046;0.0013;1.7E-5;0.900;-0.011;-3.0625E-4;3.1E-6;0.900;-0.003;-8.7500E-5;3.7E-5;0.900;-0.022;-6.1250E-4;3.6E-6;0.900;-0.003;-8.7500E-5;4.7E-5;0.900;-0.003;-8.7500E-5;7.9E-7
0.500;0.002;4.3750E-5;2.5E-5;1.000;0.046;0.0013;1.7E-5;1.000;-0.011;-3.0625E-4;3.1E-6;1.000;-0.003;-8.7500E-5;3.7E-5;1.000;-0.033;-9.1875E-4;3.7E-6;1.000;-0.005;-1.3125E-4;4.7E-5;1.000;-0.003;-8.7500E-5;8.4E-7
0.550;0.002;4.3750E-5;;1.100;0.046;0.0013;1.7E-5;1.100;-0.013;-3.5000E-4;3.1E-6;1.100;-0.003;-8.7500E-5;3.7E-5;1.100;-0.044;-0.0012;3.8E-6;1.100;-0.005;-1.3125E-4;4.7E-5;1.100;-0.005;-1.3125E-4;8.3E-7
0.600;0.002;4.3750E-5;2.5E-5;1.200;0.044;0.0012;1.7E-5;1.200;-0.014;-3.9375E-4;3.1E-6;1.200;-0.003;-8.7500E-5;3.7E-5;1.200;-0.044;-0.0012;3.9E-6;1.200;-0.005;-1.3125E-4;4.7E-5;1.200;-0.005;-1.3125E-4;8.2E-7
0.650;0.002;4.3750E-5;;1.300;0.044;0.0012;1.7E-5;1.300;-0.025;-7.0000E-4;3.2E-6;1.300;-0.005;-1.3125E-4;3.7E-5;1.300;-0.041;-0.0011;3.9E-6;1.300;-0.005;-1.3125E-4;4.7E-5;1.300;-0.005;-1.3125E-4;8.1E-7
0.700;0.002;4.3750E-5;2.5E-5;1.400;0.044;0.0012;1.7E-5;1.400;-0.046;-0.0013;3.5E-6;1.400;-0.005;-1.3125E-4;3.7E-5;1.400;-0.036;-0.0010;3.9E-6;1.400;-0.005;-1.3125E-4;4.7E-5;1.400;-0.006;-1.7500E-4;8.1E-7
0.750;0.002;4.3750E-5;;1.500;0.044;0.0012;1.7E-5;1.500;-0.080;-0.0022;3.9E-6;1.500;-0.017;-4.8125E-4;3.7E-5;1.500;-0.036;-0.0010;3.9E-6;1.500;-0.005;-1.3125E-4;4.7E-5;1.500;-0.008;-2.1875E-4;9.2E-7
0.800;0.002;4.3750E-5;2.5E-5;1.600;0.042;0.0012;1.7E-5;1.600;-0.126;-0.0035;4.3E-6;1.600;-0.055;-0.0015;3.7E-5;1.600;-0.036;-0.0010;3.9E-6;1.600;-0.005;-1.3125E-4;4.7E-5;1.600;-0.027;-7.4375E-4;1.3E-6
0.850;0.002;4.3750E-5;;1.700;0.042;0.0012;1.7E-5;1.700;-0.176;-0.0049;4.9E-6;1.700;-0.104;-0.0029;3.7E-5;1.700;-0.036;-0.0010;3.9E-6;1.700;-0.005;-1.3125E-4;4.7E-5;1.700;-0.091;-0.0025;2.3E-6
0.900;0.002;4.3750E-5;2.5E-5;1.800;0.042;0.0012;1.7E-5;1.800;-0.228;-0.0063;5.4E-6;1.800;-0.160;-0.0045;3.7E-5;1.800;-0.036;-0.0010;3.8E-6;1.800;-0.005;-1.3125E-4;4.7E-5;1.800;-0.203;-0.0056;3.8E-6
0.950;0.002;4.3750E-5;;1.900;0.041;0.0011;1.7E-5;1.900;-0.278;-0.0077;6.0E-6;1.900;-0.223;-0.0062;3.7E-5;1.900;-0.036;-0.0010;3.8E-6;1.900;0.000;-5.4210E-20;4.7E-5;1.900;-0.314;-0.0087;5.1E-6
1.000;0.002;4.3750E-5;2.5E-5;2.000;0.041;0.0011;1.7E-5;2.000;-0.327;-0.0091;6.5E-6;2.000;-0.286;-0.0080;3.7E-5;2.000;-0.036;-0.0010;3.8E-6;2.000;0.000;-5.4210E-20;4.7E-5;2.000;-0.412;-0.0115;6.1E-6
1.050;0.002;4.3750E-5;;2.100;0.039;0.0011;1.7E-5;2.100;-0.377;-0.0105;7.0E-6;2.100;-0.344;-0.0096;3.7E-5;2.100;-0.036;-0.0010;3.8E-6;2.100;0.000;-5.4210E-20;4.7E-5;2.100;-0.517;-0.0144;7.1E-6
1.100;0.002;4.3750E-5;2.5E-5;2.200;0.036;0.0010;1.7E-5;2.200;-0.432;-0.0120;7.6E-6;2.200;-0.415;-0.0115;3.7E-5;2.200;-0.036;-0.0010;3.8E-6;2.200;0.000;-5.4210E-20;4.7E-5;2.200;-0.606;-0.0169;7.8E-6
1.150;0.002;4.3750E-5;;2.300;0.033;9.1875E-4;1.7E-5;2.300;-0.492;-0.0137;8.3E-6;2.300;-0.493;-0.0137;3.6E-5;2.300;-0.036;-0.0010;3.7E-6;2.300;-0.002;-4.3750E-5;4.7E-5;2.300;-0.672;-0.0187;8.4E-6
1.200;0.002;4.3750E-5;2.5E-5;2.400;0.024;6.5625E-4;1.7E-5;2.400;-0.561;-0.0156;9.1E-6;2.400;-0.587;-0.0164;3.6E-5;2.400;-0.036;-0.0010;3.8E-6;2.400;-0.002;-4.3750E-5;4.7E-5;2.400;-0.729;-0.0203;8.8E-6
1.250;0.000;0.0000;;2.500;0.003;8.7500E-5;1.7E-5;2.500;-0.630;-0.0175;9.9E-6;2.500;-0.691;-0.0193;3.6E-5;2.500;-0.036;-0.0010;3.8E-6;2.500;-0.003;-8.7500E-5;4.7E-5;2.500;-0.773;-0.0215;9.0E-6
1.300;0.000;0.0000;2.5E-5;2.600;-0.025;-7.0000E-4;1.7E-5;2.600;-0.697;-0.0194;1.1E-5;2.600;-0.796;-0.0222;3.6E-5;2.600;-0.036;-0.0010;3.8E-6;2.600;-0.003;-8.7500E-5;4.7E-5;2.600;-0.814;-0.0227;9.3E-6
1.350;0.000;0.0000;;2.700;-0.057;-0.0016;1.7E-5;2.700;-0.776;-0.0216;1.1E-5;2.700;-0.906;-0.0252;3.5E-5;2.700;-0.036;-0.0010;3.8E-6;2.700;-0.005;-1.3125E-4;4.7E-5;2.700;-0.866;-0.0241;9.6E-6
1.400;0.000;0.0000;2.5E-5;2.800;-0.091;-0.0025;1.7E-5;2.800;-0.856;-0.0238;1.2E-5;2.800;-1.012;-0.0282;3.5E-5;2.800;-0.036;-0.0010;3.8E-6;2.800;-0.005;-1.3125E-4;4.7E-5;2.800;-0.930;-0.0259;9.9E-6
1.450;0.000;0.0000;;2.900;-0.135;-0.0038;1.7E-5;2.900;-0.938;-0.0261;1.3E-5;2.900;-1.112;-0.0310;3.4E-5;2.900;-0.036;-0.0010;3.8E-6;2.900;-0.005;-1.3125E-4;4.7E-5;2.900;-0.996;-0.0277;1.0E-5
1.500;0.000;0.0000;2.5E-5;3.000;-0.187;-0.0052;1.7E-5;3.000;-1.018;-0.0284;1.4E-5;3.000;-1.214;-0.0338;3.4E-5;3.000;-0.038;-0.0011;3.8E-6;3.000;-0.006;-1.7500E-4;4.7E-5;3.000;-1.062;-0.0296;1.0E-5
1.550;0.000;0.0000;;3.100;-0.240;-0.0067;1.7E-5;3.100;-1.096;-0.0305;1.5E-5;3.100;-1.321;-0.0368;3.3E-5;3.100;-0.039;-0.0011;3.8E-6;3.100;-0.006;-1.7500E-4;4.7E-5;3.100;-1.131;-0.0315;1.1E-5
1.600;0.000;0.0000;2.5E-5;3.200;-0.298;-0.0083;1.7E-5;3.200;-1.170;-0.0326;1.6E-5;3.200;-1.440;-0.0401;3.2E-5;3.200;-0.041;-0.0011;3.9E-6;3.200;-0.008;-2.1875E-4;4.7E-5;3.200;-1.203;-0.0335;1.1E-5
1.650;0.000;0.0000;;3.300;-0.361;-0.0101;1.7E-5;3.300;-1.253;-0.0349;1.7E-5;3.300;-1.563;-0.0435;3.1E-5;3.300;-0.049;-0.0014;4.1E-6;3.300;-0.011;-3.0625E-4;4.7E-5;3.300;-1.279;-0.0356;1.1E-5
1.700;0.000;0.0000;2.5E-5;3.400;-0.426;-0.0119;1.7E-5;3.400;-1.343;-0.0374;1.8E-5;3.400;-1.685;-0.0469;3.0E-5;3.400;-0.077;-0.0021;4.7E-6;3.400;-0.020;-5.6875E-4;4.7E-5;3.400;-1.365;-0.0380;1.1E-5
1.750;0.000;0.0000;;3.500;-0.495;-0.0138;1.8E-5;3.500;-1.428;-0.0398;1.9E-5;3.500;-1.810;-0.0504;2.8E-5;3.500;-0.137;-0.0038;5.7E-6;3.500;-0.044;-0.0012;4.7E-5;3.500;-1.469;-0.0409;1.1E-5
1.800;0.000;0.0000;2.5E-5;3.600;-0.573;-0.0160;1.8E-5;3.600;-1.513;-0.0421;1.9E-5;3.600;-1.937;-0.0539;2.7E-5;3.600;-0.206;-0.0057;6.7E-6;3.600;-0.088;-0.0025;4.7E-5;3.600;-1.576;-0.0439;1.0E-5
1.850;0.000;0.0000;;3.700;-0.660;-0.0184;1.8E-5;3.700;-1.615;-0.0450;2.0E-5;3.700;-2.059;-0.0574;2.6E-5;3.700;-0.256;-0.0071;7.5E-6;3.700;-0.135;-0.0038;4.7E-5;3.700;-1.684;-0.0469;1.0E-5
1.900;0.000;0.0000;2.5E-5;3.800;-0.749;-0.0209;1.9E-5;3.800;-1.728;-0.0481;2.1E-5;3.800;-2.171;-0.0605;2.4E-5;3.800;-0.300;-0.0084;8.2E-6;3.800;-0.188;-0.0052;4.7E-5;3.800;-1.786;-0.0497;9.9E-6
1.950;-0.002;-4.3750E-5;;3.900;-0.840;-0.0234;1.9E-5;3.900;-1.839;-0.0512;2.2E-5;3.900;-2.262;-0.0630;2.4E-5;3.900;-0.344;-0.0096;8.8E-6;3.900;-0.242;-0.0067;4.7E-5;3.900;-1.888;-0.0526;9.6E-6
2.000;-0.002;-4.3750E-5;2.5E-5;4.000;-0.947;-0.0264;2.0E-5;4.000;-1.954;-0.0544;2.3E-5;4.000;-2.347;-0.0654;2.3E-5;4.000;-0.402;-0.0112;9.8E-6;4.000;-0.303;-0.0084;4.6E-5;4.000;-1.993;-0.0555;9.2E-6
2.050;-0.002;-4.3750E-5;;4.100;-1.067;-0.0297;2.0E-5;4.100;-2.062;-0.0574;2.3E-5;4.100;-2.425;-0.0675;2.2E-5;4.100;-0.479;-0.0133;1.1E-5;4.100;-0.364;-0.0101;4.6E-5;4.100;-2.103;-0.0586;8.7E-6
2.100;-0.002;-4.3750E-5;2.5E-5;4.200;-1.195;-0.0333;2.1E-5;4.200;-2.157;-0.0601;2.3E-5;4.200;-2.498;-0.0696;2.1E-5;4.200;-0.567;-0.0158;1.2E-5;4.200;-0.437;-0.0122;4.6E-5;4.200;-2.223;-0.0619;8.3E-6
2.150;-0.003;-8.7500E-5;;4.300;-1.321;-0.0368;2.2E-5;4.300;-2.238;-0.0623;2.4E-5;4.300;-2.565;-0.0714;2.0E-5;4.300;-0.672;-0.0187;1.3E-5;4.300;-0.518;-0.0144;4.5E-5;4.300;-2.348;-0.0654;7.8E-6
2.200;-0.003;-8.7500E-5;2.5E-5;4.400;-1.431;-0.0399;2.2E-5;4.400;-2.309;-0.0643;2.4E-5;4.400;-2.634;-0.0734;2.0E-5;4.400;-0.787;-0.0219;1.5E-5;4.400;-0.598;-0.0167;4.4E-5;4.400;-2.469;-0.0688;7.4E-6
2.250;-0.006;-1.7500E-4;;4.500;-1.517;-0.0423;2.3E-5;4.500;-2.373;-0.0661;2.4E-5;4.500;-2.708;-0.0754;1.9E-5;4.500;-0.900;-0.0251;1.6E-5;4.500;-0.675;-0.0188;4.4E-5;4.500;-2.582;-0.0719;6.9E-6
2.300;-0.008;-2.1875E-4;2.5E-5;4.600;-1.598;-0.0445;2.4E-5;4.600;-2.441;-0.0680;2.4E-5;4.600;-2.782;-0.0775;1.8E-5;4.600;-1.013;-0.0282;1.6E-5;4.600;-0.743;-0.0207;4.3E-5;4.600;-2.691;-0.0749;6.5E-6
2.350;-0.011;-3.0625E-4;;4.700;-1.670;-0.0465;2.4E-5;4.700;-2.512;-0.0700;2.4E-5;4.700;-2.859;-0.0796;1.7E-5;4.700;-1.123;-0.0313;1.7E-5;4.700;-0.796;-0.0222;4.3E-5;4.700;-2.794;-0.0778;6.2E-6
2.400;-0.014;-3.9375E-4;2.5E-5;4.800;-1.728;-0.0481;2.4E-5;4.800;-2.589;-0.0721;2.4E-5;4.800;-2.945;-0.0820;1.7E-5;4.800;-1.230;-0.0343;1.7E-5;4.800;-0.844;-0.0235;4.2E-5;4.800;-2.897;-0.0807;5.8E-6
2.450;-0.022;-6.1250E-4;;4.900;-1.781;-0.0496;2.5E-5;4.900;-2.666;-0.0742;2.3E-5;4.900;-3.036;-0.0846;1.6E-5;4.900;-1.335;-0.0372;1.8E-5;4.900;-0.891;-0.0248;4.1E-5;4.900;-2.997;-0.0835;5.4E-6
2.500;-0.031;-8.7500E-4;2.5E-5;5.000;-1.855;-0.0517;2.5E-5;5.000;-2.750;-0.0766;2.3E-5;5.000;-3.118;-0.0868;1.5E-5;5.000;-1.444;-0.0402;1.8E-5;5.000;-0.941;-0.0262;4.1E-5;5.000;-3.105;-0.0865;5.0E-6
2.550;-0.042;-0.0012;;5.100;-1.951;-0.0543;2.6E-5;5.100;-2.848;-0.0793;2.3E-5;5.100;-3.189;-0.0888;1.4E-5;5.100;-1.569;-0.0437;1.8E-5;5.100;-1.005;-0.0280;4.0E-5;5.100;-3.222;-0.0897;4.7E-6
2.600;-0.055;-0.0015;2.5E-5;5.200;-2.055;-0.0572;2.6E-5;5.200;-2.952;-0.0822;2.2E-5;5.200;-3.252;-0.0906;1.4E-5;5.200;-1.706;-0.0475;1.8E-5;5.200;-1.081;-0.0301;3.9E-5;5.200;-3.338;-0.0930;4.4E-6
2.650;-0.066;-0.0018;;5.300;-2.150;-0.0599;2.6E-5;5.300;-3.058;-0.0852;2.1E-5;5.300;-3.308;-0.0921;1.4E-5;5.300;-1.846;-0.0514;1.7E-5;5.300;-1.167;-0.0325;3.8E-5;5.300;-3.456;-0.0963;4.1E-6
2.700;-0.072;-0.0020;2.5E-5;5.400;-2.235;-0.0623;2.7E-5;5.400;-3.171;-0.0883;2.1E-5;5.400;-3.365;-0.0937;1.3E-5;5.400;-1.985;-0.0553;1.7E-5;5.400;-1.266;-0.0353;3.7E-5;5.400;-3.581;-0.0998;3.8E-6
2.750;-0.079;-0.0022;;5.500;-2.301;-0.0641;2.7E-5;5.500;-3.288;-0.0916;2.0E-5;5.500;-3.424;-0.0954;1.3E-5;5.500;-2.119;-0.0590;1.6E-5;5.500;-1.373;-0.0382;3.5E-5;5.500;-3.706;-0.1032;3.5E-6
2.800;-0.082;-0.0023;2.5E-5;5.600;-2.355;-0.0656;2.7E-5;5.600;-3.407;-0.0949;1.9E-5;5.600;-3.495;-0.0973;1.2E-5;5.600;-2.240;-0.0624;1.5E-5;5.600;-1.484;-0.0413;3.3E-5;5.600;-3.825;-0.1065;3.3E-6
2.850;-0.088;-0.0024;;5.700;-2.408;-0.0671;2.7E-5;5.700;-3.525;-0.0982;1.8E-5;5.700;-3.574;-0.0995;1.2E-5;5.700;-2.359;-0.0657;1.4E-5;5.700;-1.579;-0.0440;3.2E-5;5.700;-3.919;-0.1092;3.1E-6
2.900;-0.099;-0.0028;2.5E-5;5.800;-2.465;-0.0686;2.7E-5;5.800;-3.649;-0.1016;1.7E-5;5.800;-3.654;-0.1018;1.1E-5;5.800;-2.472;-0.0689;1.4E-5;5.800;-1.656;-0.0461;3.1E-5;5.800;-3.999;-0.1114;3.0E-6
2.950;-0.116;-0.0032;;5.900;-2.537;-0.0707;2.7E-5;5.900;-3.778;-0.1052;1.6E-5;5.900;-3.743;-0.1043;1.1E-5;5.900;-2.573;-0.0717;1.3E-5;5.900;-1.726;-0.0481;3.0E-5;5.900;-4.070;-0.1134;2.8E-6
3.000;-0.140;-0.0039;2.5E-5;6.000;-2.625;-0.0731;2.7E-5;6.000;-3.902;-0.1087;1.5E-5;6.000;-3.837;-0.1069;1.0E-5;6.000;-2.672;-0.0744;1.2E-5;6.000;-1.794;-0.0500;2.9E-5;6.000;-4.131;-0.1151;2.7E-6
3.050;-0.168;-0.0047;;6.100;-2.728;-0.0760;2.6E-5;6.100;-4.034;-0.1124;1.4E-5;6.100;-3.938;-0.1097;9.5E-6;6.100;-2.772;-0.0772;1.2E-5;6.100;-1.863;-0.0519;2.8E-5;6.100;-4.200;-0.1170;2.6E-6
3.100;-0.203;-0.0056;2.4E-5;6.200;-2.854;-0.0795;2.6E-5;6.200;-4.167;-0.1161;1.3E-5;6.200;-4.043;-0.1126;9.0E-6;6.200;-2.876;-0.0801;1.1E-5;6.200;-1.938;-0.0540;2.7E-5;6.200;-4.276;-0.1191;2.5E-6
3.150;-0.243;-0.0068;;6.300;-3.005;-0.0837;2.5E-5;6.300;-4.282;-0.1193;1.2E-5;6.300;-4.148;-0.1155;8.4E-6;6.300;-2.988;-0.0832;1.0E-5;6.300;-2.015;-0.0561;2.6E-5;6.300;-4.353;-0.1212;2.4E-6
3.200;-0.283;-0.0079;2.4E-5;6.400;-3.181;-0.0886;2.4E-5;6.400;-4.389;-0.1222;1.1E-5;6.400;-4.252;-0.1184;7.9E-6;6.400;-3.096;-0.0862;9.7E-6;6.400;-2.095;-0.0584;2.5E-5;6.400;-4.434;-0.1235;2.2E-6
3.250;-0.322;-0.0090;;6.500;-3.363;-0.0937;2.3E-5;6.500;-4.481;-0.1248;1.1E-5;6.500;-4.351;-0.1212;7.5E-6;6.500;-3.192;-0.0889;9.2E-6;6.500;-2.182;-0.0608;2.4E-5;6.500;-4.525;-0.1260;2.1E-6
3.300;-0.357;-0.0099;2.4E-5;6.600;-3.544;-0.0987;2.1E-5;6.600;-4.562;-0.1270;1.0E-5;6.600;-4.441;-0.1237;7.2E-6;6.600;-3.266;-0.0910;8.9E-6;6.600;-2.273;-0.0633;2.3E-5;6.600;-4.626;-0.1288;2.0E-6
3.350;-0.385;-0.0107;;6.700;-3.715;-0.1035;2.0E-5;6.700;-4.635;-0.1291;9.7E-6;6.700;-4.521;-0.1259;6.9E-6;6.700;-3.322;-0.0925;8.6E-6;6.700;-2.373;-0.0661;2.1E-5;6.700;-4.734;-0.1319;1.9E-6
3.400;-0.408;-0.0114;2.3E-5;6.800;-3.875;-0.1079;1.8E-5;6.800;-4.700;-0.1309;9.4E-6;6.800;-4.599;-0.1281;6.6E-6;6.800;-3.376;-0.0940;8.3E-6;6.800;-2.487;-0.0693;2.0E-5;6.800;-4.847;-0.1350;1.8E-6
3.450;-0.430;-0.0120;;6.900;-4.021;-0.1120;1.7E-5;6.900;-4.771;-0.1329;8.9E-6;6.900;-4.670;-0.1301;6.4E-6;6.900;-3.435;-0.0957;8.0E-6;6.900;-2.611;-0.0727;1.9E-5;6.900;-4.961;-0.1382;1.7E-6
3.500;-0.449;-0.0125;2.3E-5;7.000;-4.147;-0.1155;1.6E-5;7.000;-4.849;-0.1351;8.5E-6;7.000;-4.742;-0.1321;6.1E-6;7.000;-3.512;-0.0978;7.6E-6;7.000;-2.743;-0.0764;1.7E-5;7.000;-5.075;-0.1414;1.6E-6
3.550;-0.470;-0.0131;;7.100;-4.257;-0.1186;1.5E-5;7.100;-4.921;-0.1371;8.1E-6;7.100;-4.818;-0.1342;5.9E-6;7.100;-3.610;-0.1005;7.1E-6;7.100;-2.881;-0.0802;1.6E-5;7.100;-5.182;-0.1443;1.5E-6
3.600;-0.493;-0.0137;2.3E-5;7.200;-4.357;-0.1214;1.4E-5;7.200;-4.989;-0.1390;7.8E-6;7.200;-4.899;-0.1365;5.6E-6;7.200;-3.720;-0.1036;6.6E-6;7.200;-3.018;-0.0840;1.5E-5;7.200;-5.275;-0.1469;1.4E-6
3.650;-0.523;-0.0146;;7.300;-4.458;-0.1242;1.3E-5;7.300;-5.047;-0.1406;7.6E-6;7.300;-4.984;-0.1388;5.4E-6;7.300;-3.844;-0.1071;6.2E-6;7.300;-3.146;-0.0876;1.4E-5;7.300;-5.363;-0.1494;1.3E-6
3.700;-0.556;-0.0155;2.2E-5;7.400;-4.551;-0.1267;1.2E-5;7.400;-5.100;-0.1421;7.3E-6;7.400;-5.064;-0.1410;5.2E-6;7.400;-3.979;-0.1108;5.7E-6;7.400;-3.263;-0.0909;1.3E-5;7.400;-5.440;-0.1515;1.2E-6
3.750;-0.592;-0.0165;;7.500;-4.631;-0.1290;1.2E-5;7.500;-5.155;-0.1436;7.1E-6;7.500;-5.140;-0.1431;5.0E-6;7.500;-4.122;-0.1148;5.2E-6;7.500;-3.368;-0.0938;1.2E-5;7.500;-5.509;-0.1534;1.2E-6
3.800;-0.628;-0.0175;2.2E-5;7.600;-4.714;-0.1313;1.1E-5;7.600;-5.191;-0.1446;7.0E-6;7.600;-5.207;-0.1450;4.9E-6;7.600;-4.274;-0.1190;4.7E-6;7.600;-3.467;-0.0966;1.2E-5;7.600;-5.572;-0.1552;1.1E-6
3.850;-0.664;-0.0185;;7.700;-4.794;-0.1335;1.1E-5;7.700;-5.204;-0.1449;6.9E-6;7.700;-5.267;-0.1467;4.7E-6;7.700;-4.433;-0.1235;4.3E-6;7.700;-3.570;-0.0994;1.1E-5;7.700;-5.638;-0.1570;1.1E-6
3.900;-0.699;-0.0195;2.1E-5;7.800;-4.869;-0.1356;1.0E-5;7.800;-5.206;-0.1450;6.9E-6;7.800;-5.325;-0.1483;4.6E-6;7.800;-4.593;-0.1279;3.9E-6;7.800;-3.677;-0.1024;1.0E-5;7.800;-5.705;-0.1589;1.1E-6
3.950;-0.734;-0.0204;;7.900;-4.957;-0.1381;9.7E-6;7.900;-5.207;-0.1450;6.9E-6;7.900;-5.383;-0.1499;4.5E-6;7.900;-4.760;-0.1326;3.5E-6;7.900;-3.784;-0.1054;9.7E-6;7.900;-5.770;-0.1607;1.0E-6
4.000;-0.768;-0.0214;2.0E-5;8.000;-5.049;-0.1406;9.1E-6;8.000;-5.207;-0.1450;7.0E-6;8.000;-5.448;-0.1517;4.3E-6;8.000;-4.939;-0.1375;3.2E-6;8.000;-3.880;-0.1081;9.2E-6;8.000;-5.831;-0.1624;1.0E-6
4.050;-0.803;-0.0224;;8.100;-5.146;-0.1433;8.5E-6;8.100;-5.207;-0.1450;7.0E-6;8.100;-5.517;-0.1536;4.1E-6;8.100;-5.121;-0.1426;2.8E-6;8.100;-3.952;-0.1101;8.9E-6;8.100;-5.892;-0.1641;9.6E-7
4.100;-0.839;-0.0234;2.0E-5;8.200;-5.257;-0.1464;7.9E-6;8.200;-5.207;-0.1450;7.0E-6;8.200;-5.589;-0.1557;4.0E-6;8.200;-5.286;-0.1472;2.5E-6;8.200;-3.998;-0.1113;8.7E-6;8.200;-5.955;-0.1659;9.6E-7
4.150;-0.877;-0.0244;;8.300;-5.361;-0.1493;7.4E-6;8.300;-5.207;-0.1450;7.0E-6;8.300;-5.661;-0.1577;3.9E-6;8.300;-5.429;-0.1512;2.4E-6;8.300;-4.032;-0.1123;8.6E-6;8.300;-6.013;-0.1675;9.2E-7
4.200;-0.919;-0.0256;1.9E-5;8.400;-5.441;-0.1515;7.1E-6;8.400;-5.209;-0.1451;7.0E-6;8.400;-5.735;-0.1597;3.8E-6;8.400;-5.550;-0.1546;2.3E-6;8.400;-4.062;-0.1131;8.4E-6;8.400;-6.081;-0.1694;9.1E-7
4.250;-0.963;-0.0268;;8.500;-5.520;-0.1537;6.7E-6;8.500;-5.217;-0.1453;6.9E-6;8.500;-5.807;-0.1617;3.7E-6;8.500;-5.655;-0.1575;2.1E-6;8.500;-4.093;-0.1140;8.3E-6;8.500;-6.161;-0.1716;8.4E-7
4.300;-1.008;-0.0281;1.8E-5;8.600;-5.611;-0.1563;6.3E-6;8.600;-5.231;-0.1457;6.9E-6;8.600;-5.887;-0.1640;3.5E-6;8.600;-5.746;-0.1600;2.0E-6;8.600;-4.134;-0.1151;8.0E-6;8.600;-6.253;-0.1742;8.3E-7
4.350;-1.056;-0.0294;;8.700;-5.716;-0.1592;5.9E-6;8.700;-5.243;-0.1460;6.8E-6;8.700;-5.980;-0.1666;3.4E-6;8.700;-5.837;-0.1626;1.9E-6;8.700;-4.181;-0.1165;7.9E-6;8.700;-6.357;-0.1771;8.1E-7
4.400;-1.107;-0.0308;1.7E-5;8.800;-5.831;-0.1624;5.4E-6;8.800;-5.259;-0.1465;6.8E-6;8.800;-6.081;-0.1694;3.2E-6;8.800;-5.939;-0.1654;1.8E-6;8.800;-4.232;-0.1179;7.6E-6;8.800;-6.458;-0.1799;7.5E-7
4.450;-1.162;-0.0324;;8.900;-5.950;-0.1657;5.0E-6;8.900;-5.279;-0.1470;6.7E-6;8.900;-6.184;-0.1722;3.1E-6;8.900;-6.046;-0.1684;1.7E-6;8.900;-4.298;-0.1197;7.4E-6;8.900;-6.539;-0.1821;7.2E-7
4.500;-1.222;-0.0340;1.6E-5;9.000;-6.068;-0.1690;4.6E-6;9.000;-5.303;-0.1477;6.6E-6;9.000;-6.275;-0.1748;2.9E-6;9.000;-6.150;-0.1713;1.7E-6;9.000;-4.387;-0.1222;7.0E-6;9.000;-6.615;-0.1842;7.1E-7
4.550;-1.283;-0.0357;;9.100;-6.187;-0.1723;4.2E-6;9.100;-5.327;-0.1484;6.5E-6;9.100;-6.349;-0.1768;2.8E-6;9.100;-6.233;-0.1736;1.6E-6;9.100;-4.491;-0.1251;6.7E-6;9.100;-6.695;-0.1865;6.7E-7
4.600;-1.343;-0.0374;1.5E-5;9.200;-6.302;-0.1755;3.9E-6;9.200;-5.345;-0.1489;6.4E-6;9.200;-6.409;-0.1785;2.7E-6;9.200;-6.296;-0.1753;1.5E-6;9.200;-4.588;-0.1278;6.4E-6;9.200;-6.775;-0.1887;6.5E-7
4.650;-1.400;-0.0390;;9.300;-6.401;-0.1783;3.7E-6;9.300;-5.378;-0.1498;6.4E-6;9.300;-6.458;-0.1799;2.6E-6;9.300;-6.349;-0.1768;1.5E-6;9.300;-4.665;-0.1299;6.1E-6;9.300;-6.855;-0.1909;6.3E-7
4.700;-1.450;-0.0404;1.5E-5;9.400;-6.495;-0.1809;3.4E-6;9.400;-5.446;-0.1517;6.0E-6;9.400;-6.498;-0.1810;2.6E-6;9.400;-6.401;-0.1783;1.5E-6;9.400;-4.725;-0.1316;5.9E-6;9.400;-6.948;-0.1935;5.9E-7
4.750;-1.492;-0.0416;;9.500;-6.585;-0.1834;3.2E-6;9.500;-5.539;-0.1543;5.7E-6;9.500;-6.541;-0.1822;2.6E-6;9.500;-6.450;-0.1796;1.4E-6;9.500;-4.766;-0.1327;5.8E-6;9.500;-7.047;-0.1963;5.3E-7
4.800;-1.528;-0.0426;1.4E-5;9.600;-6.668;-0.1857;3.0E-6;9.600;-5.642;-0.1572;5.4E-6;9.600;-6.583;-0.1834;2.6E-6;9.600;-6.495;-0.1809;1.4E-6;9.600;-4.783;-0.1332;5.8E-6;9.600;-7.146;-0.1990;5.2E-7
4.850;-1.561;-0.0435;;9.700;-6.747;-0.1879;2.8E-6;9.700;-5.733;-0.1597;5.1E-6;9.700;-6.630;-0.1847;2.5E-6;9.700;-6.550;-0.1824;1.4E-6;9.700;-4.786;-0.1333;5.8E-6;9.700;-7.237;-0.2016;4.8E-7
4.900;-1.591;-0.0443;1.4E-5;9.800;-6.819;-0.1899;2.6E-6;9.800;-5.815;-0.1620;4.9E-6;9.800;-6.684;-0.1862;2.4E-6;9.800;-6.615;-0.1842;1.3E-6;9.800;-4.807;-0.1339;5.6E-6;9.800;-7.317;-0.2038;5.1E-7
4.950;-1.623;-0.0452;;9.900;-6.893;-0.1920;2.5E-6;9.900;-5.894;-0.1642;4.6E-6;9.900;-6.740;-0.1877;2.3E-6;9.900;-6.688;-0.1863;1.2E-6;9.900;-4.846;-0.1350;5.6E-6;9.900;-7.395;-0.2060;4.4E-7
5.000;-1.654;-0.0461;1.3E-5;10.000;-6.970;-0.1941;2.3E-6;10.000;-5.983;-0.1666;4.4E-6;10.000;-6.795;-0.1893;2.3E-6;10.000;-6.775;-0.1887;1.2E-6;10.000;-4.857;-0.1353;5.5E-6;10.000;-7.480;-0.2083;4.3E-7
5.050;-1.681;-0.0468;;10.100;-7.043;-0.1962;2.2E-6;10.100;-6.084;-0.1694;4.1E-6;10.100;-6.844;-0.1906;2.2E-6;10.100;-6.869;-0.1913;1.2E-6;10.100;-4.857;-0.1353;5.5E-6;10.100;-7.595;-0.2115;4.2E-7
5.100;-1.701;-0.0474;1.3E-5;10.200;-7.108;-0.1980;2.1E-6;10.200;-6.197;-0.1726;3.9E-6;10.200;-6.890;-0.1919;2.2E-6;10.200;-6.952;-0.1936;1.1E-6;10.200;-4.868;-0.1356;5.5E-6;10.200;-7.720;-0.2150;3.9E-7
5.150;-1.717;-0.0478;;10.300;-7.168;-0.1996;2.0E-6;10.300;-6.308;-0.1757;3.7E-6;10.300;-6.938;-0.1932;2.2E-6;10.300;-7.014;-0.1953;1.1E-6;10.300;-4.888;-0.1362;5.4E-6;10.300;-7.830;-0.2181;3.7E-7
5.200;-1.726;-0.0481;1.3E-5;10.400;-7.230;-0.2014;1.9E-6;10.400;-6.398;-0.1782;3.5E-6;10.400;-6.995;-0.1948;2.1E-6;10.400;-7.072;-0.1970;1.1E-6;10.400;-4.917;-0.1369;5.4E-6;10.400;-7.922;-0.2206;3.7E-7
5.250;-1.739;-0.0484;;10.500;-7.298;-0.2033;1.8E-6;10.500;-6.464;-0.1800;3.4E-6;10.500;-7.054;-0.1965;2.0E-6;10.500;-7.136;-0.1988;1.0E-6;10.500;-4.951;-0.1379;5.3E-6;10.500;-7.958;-0.2216;3.0E-7
5.300;-1.751;-0.0488;1.2E-5;10.600;-7.359;-0.2050;1.7E-6;10.600;-6.516;-0.1815;3.3E-6;10.600;-7.117;-0.1982;2.0E-6;10.600;-7.194;-0.2004;9.8E-7;10.600;-4.997;-0.1392;5.2E-6;10.600;-7.961;-0.2217;3.6E-7
5.350;-1.769;-0.0493;;10.700;-7.417;-0.2066;1.7E-6;10.700;-6.561;-0.1827;3.2E-6;10.700;-7.180;-0.2000;2.0E-6;10.700;-7.251;-0.2020;9.8E-7;10.700;-5.058;-0.1409;5.0E-6;10.700;-7.964;-0.2218;3.7E-7
5.400;-1.786;-0.0497;1.2E-5;10.800;-7.474;-0.2082;1.5E-6;10.800;-6.610;-0.1841;3.1E-6;10.800;-7.240;-0.2016;1.9E-6;10.800;-7.292;-0.2031;9.8E-7;10.800;-5.130;-0.1429;4.9E-6;10.800;-7.964;-0.2218;4.3E-7
5.450;-1.803;-0.0502;;10.900;-7.524;-0.2096;1.5E-6;10.900;-6.663;-0.1856;3.1E-6;10.900;-7.296;-0.2032;1.8E-6;10.900;-7.303;-0.2034;9.4E-7;10.900;-5.202;-0.1449;4.7E-6;10.900;-7.962;-0.2218;4.2E-7
5.500;-1.821;-0.0507;1.2E-5;11.000;-7.563;-0.2107;1.4E-6;11.000;-6.715;-0.1870;3.0E-6;11.000;-7.351;-0.2048;1.8E-6;11.000;-7.301;-0.2034;9.0E-7;11.000;-5.270;-0.1468;4.6E-6;11.000;-7.959;-0.2217;3.7E-7
5.550;-1.836;-0.0511;;11.100;-7.596;-0.2116;1.4E-6;11.100;-6.762;-0.1883;2.8E-6;11.100;-7.405;-0.2062;1.7E-6;11.100;-7.299;-0.2033;9.2E-7;11.100;-5.323;-0.1483;4.5E-6;11.100;-7.958;-0.2216;3.5E-7
5.600;-1.852;-0.0516;1.2E-5;11.200;-7.628;-0.2124;1.3E-6;11.200;-6.794;-0.1892;2.8E-6;11.200;-7.453;-0.2076;1.7E-6;11.200;-7.296;-0.2032;9.6E-7;11.200;-5.375;-0.1497;4.3E-6;11.200;-7.955;-0.2215;3.3E-7
5.650;-1.866;-0.0520;;11.300;-7.661;-0.2134;1.3E-6;11.300;-6.813;-0.1897;2.8E-6;11.300;-7.502;-0.2090;1.7E-6;11.300;-7.293;-0.2031;9.9E-7;11.300;-5.429;-0.1512;4.2E-6;11.300;-7.950;-0.2214;3.4E-7
5.700;-1.880;-0.0524;1.1E-5;11.400;-7.697;-0.2144;1.3E-6;11.400;-6.838;-0.1904;2.8E-6;11.400;-7.557;-0.2105;1.7E-6;11.400;-7.281;-0.2028;1.0E-6;11.400;-5.477;-0.1526;4.2E-6;11.400;-7.934;-0.2210;3.5E-7
5.750;-1.894;-0.0528;;11.500;-7.730;-0.2153;1.3E-6;11.500;-6.886;-0.1918;2.7E-6;11.500;-7.617;-0.2121;1.6E-6;11.500;-7.238;-0.2016;1.0E-6;11.500;-5.526;-0.1539;4.1E-6;11.500;-7.900;-0.2200;4.1E-7
5.800;-1.910;-0.0532;1.1E-5;11.600;-7.747;-0.2158;1.2E-6;11.600;-6.955;-0.1937;2.5E-6;11.600;-7.680;-0.2139;1.6E-6;11.600;-7.146;-0.1990;1.0E-6;11.600;-5.584;-0.1555;3.9E-6;11.600;-7.840;-0.2184;4.3E-7
5.850;-1.929;-0.0537;;11.700;-7.753;-0.2159;1.2E-6;11.700;-7.034;-0.1959;2.4E-6;11.700;-7.744;-0.2157;1.6E-6;11.700;-7.003;-0.1950;1.1E-6;11.700;-5.649;-0.1573;3.8E-6;11.700;-7.774;-0.2165;3.7E-7
5.900;-1.951;-0.0543;1.1E-5;11.800;-7.753;-0.2159;1.2E-6;11.800;-7.114;-0.1981;2.4E-6;11.800;-7.807;-0.2174;1.5E-6;11.800;-6.849;-0.1908;1.3E-6;11.800;-5.716;-0.1592;3.7E-6;11.800;-7.708;-0.2147;4.1E-7
5.950;-1.974;-0.0550;;11.900;-7.752;-0.2159;1.2E-6;11.900;-7.207;-0.2007;2.3E-6;11.900;-7.870;-0.2192;1.5E-6;11.900;-6.698;-0.1866;1.3E-6;11.900;-5.781;-0.1610;3.6E-6;11.900;-7.629;-0.2125;4.5E-7
6.000;-2.003;-0.0558;1.1E-5;12.000;-7.749;-0.2158;1.3E-6;12.000;-7.301;-0.2033;2.2E-6;12.000;-7.939;-0.2211;1.4E-6;12.000;-6.555;-0.1826;1.4E-6;12.000;-5.840;-0.1627;3.5E-6;12.000;-7.560;-0.2106;4.3E-7
6.050;-2.029;-0.0565;;12.100;-7.749;-0.2158;1.2E-6;12.100;-7.395;-0.2060;2.1E-6;12.100;-8.011;-0.2231;1.4E-6;12.100;-6.450;-0.1796;1.5E-6;12.100;-5.897;-0.1642;3.5E-6;12.100;-7.508;-0.2091;4.4E-7
6.100;-2.058;-0.0573;1.0E-5;12.200;-7.749;-0.2158;1.2E-6;12.200;-7.483;-0.2084;2.0E-6;12.200;-8.075;-0.2249;1.4E-6;12.200;-6.382;-0.1778;1.5E-6;12.200;-5.950;-0.1657;3.4E-6;12.200;-7.457;-0.2077;4.8E-7
6.150;-2.086;-0.0581;;12.300;-7.749;-0.2158;1.2E-6;12.300;-7.549;-0.2103;2.0E-6;12.300;-8.116;-0.2261;1.4E-6;12.300;-6.335;-0.1764;1.5E-6;12.300;-6.000;-0.1671;3.4E-6;12.300;-7.409;-0.2064;4.9E-7
6.200;-2.113;-0.0588;9.9E-6;12.400;-7.749;-0.2158;1.2E-6;12.400;-7.598;-0.2116;1.9E-6;12.400;-8.129;-0.2264;1.4E-6;12.400;-6.293;-0.1753;1.6E-6;12.400;-6.051;-0.1685;3.3E-6;12.400;-7.362;-0.2051;4.7E-7
6.250;-2.144;-0.0597;;12.500;-7.749;-0.2158;1.2E-6;12.500;-7.636;-0.2127;1.8E-6;12.500;-8.130;-0.2265;1.3E-6;12.500;-6.250;-0.1741;1.6E-6;12.500;-6.101;-0.1699;3.2E-6;12.500;-7.292;-0.2031;5.3E-7
6.300;-2.172;-0.0605;9.6E-6;12.600;-7.749;-0.2158;1.2E-6;12.600;-7.664;-0.2135;1.8E-6;12.600;-8.130;-0.2265;1.3E-6;12.600;-6.200;-0.1727;1.7E-6;12.600;-6.153;-0.1714;3.1E-6;12.600;-7.208;-0.2008;5.0E-7
6.350;-2.201;-0.0613;;12.700;-7.749;-0.2158;1.2E-6;12.700;-7.673;-0.2137;1.8E-6;12.700;-8.129;-0.2264;1.3E-6;12.700;-6.147;-0.1712;1.7E-6;12.700;-6.205;-0.1728;3.0E-6;12.700;-7.117;-0.1982;5.4E-7
6.400;-2.229;-0.0621;9.3E-6;12.800;-7.749;-0.2158;1.2E-6;12.800;-7.673;-0.2137;1.8E-6;12.800;-8.129;-0.2264;1.3E-6;12.800;-6.084;-0.1694;1.8E-6;12.800;-6.263;-0.1744;2.9E-6;12.800;-7.025;-0.1956;6.3E-7
6.450;-2.256;-0.0628;;12.900;-7.749;-0.2158;1.2E-6;12.900;-7.673;-0.2137;1.8E-6;12.900;-8.126;-0.2263;1.3E-6;12.900;-6.016;-0.1676;1.8E-6;12.900;-6.327;-0.1762;2.8E-6;12.900;-6.943;-0.1934;6.3E-7
6.500;-2.281;-0.0635;9.0E-6;13.000;-7.749;-0.2158;1.2E-6;13.000;-7.675;-0.2138;1.8E-6;13.000;-8.123;-0.2262;1.3E-6;13.000;-5.944;-0.1656;1.9E-6;13.000;-6.388;-0.1779;2.7E-6;13.000;-6.880;-0.1916;5.9E-7
6.550;-2.306;-0.0642;;13.100;-7.749;-0.2158;1.2E-6;13.100;-7.684;-0.2140;1.8E-6;13.100;-8.121;-0.2262;1.3E-6;13.100;-5.862;-0.1633;2.0E-6;13.100;-6.448;-0.1796;2.6E-6;13.100;-6.828;-0.1902;5.8E-7
6.600;-2.328;-0.0648;8.7E-6;13.200;-7.749;-0.2158;1.2E-6;13.200;-7.714;-0.2149;1.8E-6;13.200;-8.119;-0.2261;1.3E-6;13.200;-5.773;-0.1608;2.1E-6;13.200;-6.511;-0.1813;2.6E-6;13.200;-6.772;-0.1886;6.2E-7
6.650;-2.350;-0.0655;;13.300;-7.749;-0.2158;1.2E-6;13.300;-7.785;-0.2168;1.7E-6;13.300;-8.118;-0.2261;1.2E-6;13.300;-5.672;-0.1580;2.1E-6;13.300;-6.569;-0.1830;2.6E-6;13.300;-6.710;-0.1869;5.9E-7
6.700;-2.372;-0.0661;8.5E-6;13.400;-7.749;-0.2158;1.2E-6;13.400;-7.887;-0.2197;1.7E-6;13.400;-8.116;-0.2261;1.3E-6;13.400;-5.565;-0.1550;2.3E-6;13.400;-6.624;-0.1845;2.5E-6;13.400;-6.640;-0.1849;6.7E-7
6.750;-2.395;-0.0667;;13.500;-7.749;-0.2158;1.2E-6;13.500;-7.992;-0.2226;1.5E-6;13.500;-8.113;-0.2260;1.3E-6;13.500;-5.474;-0.1525;2.4E-6;13.500;-6.679;-0.1860;2.5E-6;13.500;-6.564;-0.1828;7.1E-7
6.800;-2.417;-0.0673;8.3E-6;13.600;-7.749;-0.2158;1.2E-6;13.600;-8.068;-0.2247;1.5E-6;13.600;-8.105;-0.2258;1.3E-6;13.600;-5.388;-0.1501;2.6E-6;13.600;-6.731;-0.1875;2.4E-6;13.600;-6.486;-0.1806;7.7E-7
6.850;-2.439;-0.0679;;13.700;-7.749;-0.2158;1.3E-6;13.700;-8.099;-0.2256;1.5E-6;13.700;-8.083;-0.2251;1.3E-6;13.700;-5.303;-0.1477;2.7E-6;13.700;-6.781;-0.1889;2.4E-6;13.700;-6.395;-0.1781;7.9E-7
6.900;-2.461;-0.0686;8.1E-6;13.800;-7.749;-0.2158;1.2E-6;13.800;-8.108;-0.2258;1.5E-6;13.800;-8.052;-0.2243;1.3E-6;13.800;-5.206;-0.1450;2.8E-6;13.800;-6.825;-0.1901;2.3E-6;13.800;-6.304;-0.1756;7.7E-7
6.950;-2.483;-0.0692;;13.900;-7.749;-0.2158;1.2E-6;13.900;-8.124;-0.2263;1.5E-6;13.900;-8.011;-0.2231;1.4E-6;13.900;-5.100;-0.1421;3.0E-6;13.900;-6.871;-0.1914;2.3E-6;13.900;-6.216;-0.1731;7.9E-7
7.000;-2.507;-0.0698;7.8E-6;14.000;-7.749;-0.2158;1.2E-6;14.000;-8.163;-0.2274;1.4E-6;14.000;-7.958;-0.2216;1.4E-6;14.000;-4.997;-0.1392;3.2E-6;14.000;-6.916;-0.1926;2.3E-6;14.000;-6.134;-0.1708;8.6E-7
7.050;-2.532;-0.0705;;14.100;-7.747;-0.2158;1.2E-6;14.100;-8.212;-0.2287;1.3E-6;14.100;-7.885;-0.2196;1.5E-6;14.100;-4.885;-0.1361;3.4E-6;14.100;-6.954;-0.1937;2.2E-6;14.100;-6.052;-0.1686;8.4E-7
7.100;-2.553;-0.0711;7.7E-6;14.200;-7.747;-0.2158;1.2E-6;14.200;-8.240;-0.2295;1.4E-6;14.200;-7.810;-0.2175;1.5E-6;14.200;-4.761;-0.1326;3.6E-6;14.200;-6.985;-0.1946;2.2E-6;14.200;-5.967;-0.1662;8.3E-7
7.150;-2.570;-0.0716;;14.300;-7.747;-0.2158;1.2E-6;14.300;-8.240;-0.2295;1.4E-6;14.300;-7.739;-0.2156;1.5E-6;14.300;-4.626;-0.1288;4.0E-6;14.300;-7.015;-0.1954;2.2E-6;14.300;-5.879;-0.1638;9.0E-7
7.200;-2.584;-0.0720;7.5E-6;14.400;-7.747;-0.2158;1.2E-6;14.400;-8.240;-0.2295;1.4E-6;14.400;-7.672;-0.2137;1.5E-6;14.400;-4.485;-0.1249;4.3E-6;14.400;-7.045;-0.1962;2.1E-6;14.400;-5.774;-0.1608;1.0E-6
7.250;-2.598;-0.0724;;14.500;-7.747;-0.2158;1.2E-6;14.500;-8.240;-0.2295;1.4E-6;14.500;-7.606;-0.2118;1.6E-6;14.500;-4.340;-0.1209;4.7E-6;14.500;-7.076;-0.1971;2.1E-6;14.500;-5.655;-0.1575;1.0E-6
7.300;-2.615;-0.0728;7.3E-6;14.600;-7.747;-0.2158;1.2E-6;14.600;-8.240;-0.2295;1.4E-6;14.600;-7.537;-0.2099;1.6E-6;14.600;-4.185;-0.1166;5.2E-6;14.600;-7.105;-0.1979;2.0E-6;14.600;-5.517;-0.1536;1.1E-6
7.350;-2.642;-0.0736;;14.700;-7.746;-0.2157;1.2E-6;14.700;-8.237;-0.2294;1.4E-6;14.700;-7.464;-0.2079;1.7E-6;14.700;-4.029;-0.1122;5.7E-6;14.700;-7.122;-0.1984;2.0E-6;14.700;-5.367;-0.1495;1.3E-6
7.400;-2.673;-0.0745;7.0E-6;14.800;-7.746;-0.2157;1.2E-6;14.800;-8.237;-0.2294;1.4E-6;14.800;-7.395;-0.2060;1.8E-6;14.800;-3.885;-0.1082;6.3E-6;14.800;-7.122;-0.1984;2.0E-6;14.800;-5.215;-0.1452;1.4E-6
7.450;-2.708;-0.0754;;14.900;-7.744;-0.2157;1.2E-6;14.900;-8.236;-0.2294;1.4E-6;14.900;-7.339;-0.2044;1.9E-6;14.900;-3.753;-0.1045;6.8E-6;14.900;-7.119;-0.1983;2.0E-6;14.900;-5.074;-0.1413;1.5E-6
7.500;-2.741;-0.0763;6.7E-6;15.000;-7.742;-0.2156;1.1E-6;15.000;-8.236;-0.2294;1.4E-6;15.000;-7.295;-0.2032;1.8E-6;15.000;-3.625;-0.1010;7.4E-6;15.000;-7.119;-0.1983;2.0E-6;15.000;-4.943;-0.1377;1.6E-6
7.550;-2.765;-0.0770;;15.100;-7.736;-0.2155;1.2E-6;15.100;-8.236;-0.2294;1.4E-6;15.100;-7.260;-0.2022;1.8E-6;15.100;-3.493;-0.0973;8.0E-6;15.100;-7.117;-0.1982;2.0E-6;15.100;-4.822;-0.1343;1.7E-6
7.600;-2.772;-0.0772;6.7E-6;15.200;-7.728;-0.2152;1.2E-6;15.200;-8.234;-0.2293;1.4E-6;15.200;-7.232;-0.2014;1.9E-6;15.200;-3.362;-0.0936;8.7E-6;15.200;-7.116;-0.1982;2.1E-6;15.200;-4.711;-0.1312;1.8E-6
7.650;-2.772;-0.0772;;15.300;-7.713;-0.2148;1.2E-6;15.300;-8.234;-0.2293;1.4E-6;15.300;-7.212;-0.2009;1.9E-6;15.300;-3.239;-0.0902;9.3E-6;15.300;-7.116;-0.1982;2.1E-6;15.300;-4.606;-0.1283;1.9E-6
7.700;-2.772;-0.0772;6.7E-6;15.400;-7.689;-0.2142;1.2E-6;15.400;-8.233;-0.2293;1.4E-6;15.400;-7.190;-0.2002;1.9E-6;15.400;-3.126;-0.0871;9.9E-6;15.400;-7.114;-0.1981;2.1E-6;15.400;-4.513;-0.1257;2.0E-6
7.750;-2.772;-0.0772;;15.500;-7.661;-0.2134;1.3E-6;15.500;-8.225;-0.2291;1.5E-6;15.500;-7.157;-0.1993;1.9E-6;15.500;-3.025;-0.0843;1.0E-5;15.500;-7.111;-0.1981;2.1E-6;15.500;-4.430;-0.1234;2.1E-6
7.800;-2.771;-0.0772;6.7E-6;15.600;-7.623;-0.2123;1.3E-6;15.600;-8.217;-0.2289;1.4E-6;15.600;-7.116;-0.1982;2.0E-6;15.600;-2.937;-0.0818;1.1E-5;15.600;-7.105;-0.1979;2.1E-6;15.600;-4.359;-0.1214;2.2E-6
7.850;-2.769;-0.0771;;15.700;-7.576;-0.2110;1.4E-6;15.700;-8.196;-0.2283;1.4E-6;15.700;-7.078;-0.1971;2.0E-6;15.700;-2.856;-0.0795;1.2E-5;15.700;-7.086;-0.1974;2.1E-6;15.700;-4.285;-0.1193;2.3E-6
7.900;-2.769;-0.0771;6.7E-6;15.800;-7.516;-0.2093;1.5E-6;15.800;-8.162;-0.2273;1.4E-6;15.800;-7.043;-0.1962;2.1E-6;15.800;-2.758;-0.0768;1.2E-5;15.800;-7.048;-0.1963;2.1E-6;15.800;-4.196;-0.1169;2.5E-6
7.950;-2.769;-0.0771;;15.900;-7.449;-0.2075;1.6E-6;15.900;-8.123;-0.2262;1.4E-6;15.900;-7.006;-0.1951;2.0E-6;15.900;-2.644;-0.0736;1.3E-5;15.900;-7.001;-0.1950;2.2E-6;15.900;-4.097;-0.1141;2.7E-6
8.000;-2.768;-0.0771;6.7E-6;16.000;-7.381;-0.2056;1.7E-6;16.000;-8.082;-0.2251;1.5E-6;16.000;-6.970;-0.1941;2.1E-6;16.000;-2.513;-0.0700;1.4E-5;16.000;-6.944;-0.1934;2.2E-6;16.000;-3.995;-0.1113;2.9E-6
8.050;-2.768;-0.0771;;16.100;-7.307;-0.2035;1.8E-6;16.100;-8.041;-0.2240;1.5E-6;16.100;-6.923;-0.1928;2.2E-6;16.100;-2.378;-0.0662;1.5E-5;16.100;-6.883;-0.1917;2.2E-6;16.100;-3.902;-0.1087;3.0E-6
8.100;-2.768;-0.0771;6.7E-6;16.200;-7.234;-0.2015;2.0E-6;16.200;-8.003;-0.2229;1.6E-6;16.200;-6.872;-0.1914;2.2E-6;16.200;-2.257;-0.0629;1.5E-5;16.200;-6.824;-0.1901;2.3E-6;16.200;-3.814;-0.1062;3.2E-6
8.150;-2.766;-0.0770;;16.300;-7.155;-0.1993;2.1E-6;16.300;-7.961;-0.2217;1.5E-6;16.300;-6.825;-0.1901;2.3E-6;16.300;-2.141;-0.0596;1.6E-5;16.300;-6.751;-0.1880;2.4E-6;16.300;-3.729;-0.1039;3.4E-6
8.200;-2.765;-0.0770;6.7E-6;16.400;-7.065;-0.1968;2.2E-6;16.400;-7.912;-0.2204;1.6E-6;16.400;-6.778;-0.1888;2.4E-6;16.400;-2.022;-0.0563;1.7E-5;16.400;-6.666;-0.1857;2.5E-6;16.400;-3.638;-0.1013;3.6E-6
8.250;-2.763;-0.0770;;16.500;-6.966;-0.1940;2.4E-6;16.500;-7.848;-0.2186;1.7E-6;16.500;-6.731;-0.1875;2.4E-6;16.500;-1.882;-0.0524;1.7E-5;16.500;-6.577;-0.1832;2.6E-6;16.500;-3.553;-0.0990;3.8E-6
8.300;-2.761;-0.0769;6.8E-6;16.600;-6.866;-0.1912;2.5E-6;16.600;-7.763;-0.2162;1.7E-6;16.600;-6.679;-0.1860;2.4E-6;16.600;-1.728;-0.0481;1.8E-5;16.600;-6.478;-0.1804;2.6E-6;16.600;-3.479;-0.0969;4.0E-6
8.350;-2.758;-0.0768;;16.700;-6.769;-0.1885;2.7E-6;16.700;-7.661;-0.2134;1.8E-6;16.700;-6.618;-0.1843;2.5E-6;16.700;-1.568;-0.0437;1.8E-5;16.700;-6.373;-0.1775;2.8E-6;16.700;-3.388;-0.0944;4.2E-6
8.400;-2.752;-0.0767;6.8E-6;16.800;-6.673;-0.1858;2.9E-6;16.800;-7.549;-0.2103;1.9E-6;16.800;-6.546;-0.1823;2.5E-6;16.800;-1.412;-0.0393;1.8E-5;16.800;-6.264;-0.1745;2.9E-6;16.800;-3.288;-0.0916;4.6E-6
8.450;-2.744;-0.0764;;16.900;-6.583;-0.1834;3.2E-6;16.900;-7.427;-0.2068;2.0E-6;16.900;-6.472;-0.1803;2.6E-6;16.900;-1.260;-0.0351;1.7E-5;16.900;-6.153;-0.1714;3.0E-6;16.900;-3.181;-0.0886;4.9E-6
8.500;-2.732;-0.0761;6.9E-6;17.000;-6.502;-0.1811;3.4E-6;17.000;-7.290;-0.2030;2.2E-6;17.000;-6.404;-0.1784;2.8E-6;17.000;-1.109;-0.0309;1.7E-5;17.000;-6.044;-0.1684;3.2E-6;17.000;-3.077;-0.0857;5.2E-6
8.550;-2.716;-0.0756;;17.100;-6.426;-0.1790;3.6E-6;17.100;-7.146;-0.1990;2.4E-6;17.100;-6.343;-0.1767;2.9E-6;17.100;-0.963;-0.0268;1.6E-5;17.100;-5.952;-0.1658;3.3E-6;17.100;-2.981;-0.0830;5.5E-6
8.600;-2.699;-0.0752;7.0E-6;17.200;-6.348;-0.1768;3.8E-6;17.200;-7.003;-0.1950;2.5E-6;17.200;-6.286;-0.1751;2.9E-6;17.200;-0.818;-0.0228;1.5E-5;17.200;-5.870;-0.1635;3.5E-6;17.200;-2.890;-0.0805;5.8E-6
8.650;-2.684;-0.0748;;17.300;-6.267;-0.1746;4.0E-6;17.300;-6.869;-0.1913;2.6E-6;17.300;-6.234;-0.1736;2.9E-6;17.300;-0.680;-0.0189;1.3E-5;17.300;-5.782;-0.1610;3.6E-6;17.300;-2.794;-0.0778;6.1E-6
8.700;-2.672;-0.0744;7.1E-6;17.400;-6.181;-0.1722;4.3E-6;17.400;-6.747;-0.1879;2.9E-6;17.400;-6.186;-0.1723;3.0E-6;17.400;-0.550;-0.0153;1.2E-5;17.400;-5.683;-0.1583;3.8E-6;17.400;-2.699;-0.0752;6.5E-6
8.750;-2.666;-0.0742;;17.500;-6.099;-0.1699;4.5E-6;17.500;-6.629;-0.1846;3.0E-6;17.500;-6.137;-0.1709;3.1E-6;17.500;-0.427;-0.0119;9.8E-6;17.500;-5.575;-0.1553;3.9E-6;17.500;-2.608;-0.0726;6.9E-6
8.800;-2.661;-0.0741;7.2E-6;17.600;-6.021;-0.1677;4.7E-6;17.600;-6.514;-0.1814;3.3E-6;17.600;-6.081;-0.1694;3.2E-6;17.600;-0.306;-0.0085;8.1E-6;17.600;-5.465;-0.1522;4.1E-6;17.600;-2.507;-0.0698;7.3E-6
8.850;-2.655;-0.0739;;17.700;-5.947;-0.1656;5.0E-6;17.700;-6.396;-0.1781;3.5E-6;17.700;-6.011;-0.1674;3.3E-6;17.700;-0.196;-0.0055;6.4E-6;17.700;-5.356;-0.1492;4.3E-6;17.700;-2.392;-0.0666;7.7E-6
8.900;-2.644;-0.0736;7.3E-6;17.800;-5.878;-0.1637;5.2E-6;17.800;-6.274;-0.1747;3.7E-6;17.800;-5.934;-0.1653;3.4E-6;17.800;-0.096;-0.0027;4.7E-6;17.800;-5.240;-0.1460;4.6E-6;17.800;-2.273;-0.0633;8.2E-6
8.950;-2.630;-0.0732;;17.900;-5.804;-0.1617;5.6E-6;17.900;-6.151;-0.1713;4.0E-6;17.900;-5.853;-0.1630;3.6E-6;17.900;-0.002;-4.3750E-5;3.1E-6;17.900;-5.111;-0.1424;4.9E-6;17.900;-2.146;-0.0598;8.7E-6
9.000;-2.609;-0.0727;7.4E-6;18.000;-5.719;-0.1593;5.9E-6;18.000;-6.037;-0.1681;4.2E-6;18.000;-5.770;-0.1607;3.7E-6;18.000;0.094;0.0026;1.5E-6;18.000;-4.970;-0.1384;5.3E-6;18.000;-2.029;-0.0565;9.1E-6
9.050;-2.584;-0.0720;;18.100;-5.627;-0.1567;6.2E-6;18.100;-5.931;-0.1652;4.5E-6;18.100;-5.686;-0.1584;3.8E-6;18.100;0.193;0.0054;-2.2E-7;18.100;-4.835;-0.1347;5.6E-6;18.100;-1.927;-0.0537;9.5E-6
9.100;-2.553;-0.0711;7.7E-6;18.200;-5.537;-0.1542;6.6E-6;18.200;-5.823;-0.1622;4.8E-6;18.200;-5.603;-0.1561;3.9E-6;18.200;0.300;0.0084;-2.1E-6;18.200;-4.717;-0.1314;6.0E-6;18.200;-1.844;-0.0514;9.8E-6
9.150;-2.520;-0.0702;;18.300;-5.452;-0.1519;7.0E-6;18.300;-5.718;-0.1592;5.1E-6;18.300;-5.523;-0.1538;4.1E-6;18.300;0.419;0.0117;-4.3E-6;18.300;-4.612;-0.1285;6.3E-6;18.300;-1.767;-0.0492;1.0E-5
9.200;-2.490;-0.0693;8.0E-6;18.400;-5.369;-0.1495;7.4E-6;18.400;-5.619;-0.1565;5.4E-6;18.400;-5.440;-0.1515;4.3E-6;18.400;0.540;0.0150;-6.2E-6;18.400;-4.514;-0.1257;6.5E-6;18.400;-1.687;-0.0470;1.0E-5
9.250;-2.463;-0.0686;;18.500;-5.292;-0.1474;7.8E-6;18.500;-5.515;-0.1536;5.8E-6;18.500;-5.356;-0.1492;4.5E-6;18.500;0.658;0.0183;-8.1E-6;18.500;-4.425;-0.1232;6.8E-6;18.500;-1.582;-0.0441;1.0E-5
9.300;-2.439;-0.0679;8.3E-6;18.600;-5.217;-0.1453;8.2E-6;18.600;-5.388;-0.1501;6.3E-6;18.600;-5.267;-0.1467;4.7E-6;18.600;0.765;0.0213;-9.6E-6;18.600;-4.343;-0.1210;7.1E-6;18.600;-1.462;-0.0407;1.1E-5
9.350;-2.421;-0.0674;;18.700;-5.133;-0.1430;8.7E-6;18.700;-5.257;-0.1464;6.7E-6;18.700;-5.174;-0.1441;4.9E-6;18.700;0.862;0.0240;-1.1E-5;18.700;-4.260;-0.1187;7.5E-6;18.700;-1.343;-0.0374;1.1E-5
9.400;-2.403;-0.0669;8.4E-6;18.800;-5.036;-0.1403;9.3E-6;18.800;-5.132;-0.1429;7.3E-6;18.800;-5.078;-0.1414;5.2E-6;18.800;0.968;0.0269;-1.2E-5;18.800;-4.178;-0.1164;7.8E-6;18.800;-1.211;-0.0337;1.1E-5
9.450;-2.389;-0.0665;;18.900;-4.923;-0.1371;1.0E-5;18.900;-5.014;-0.1396;7.8E-6;18.900;-4.979;-0.1387;5.4E-6;18.900;1.092;0.0304;-1.4E-5;18.900;-4.103;-0.1143;8.1E-6;18.900;-1.079;-0.0301;1.0E-5
9.500;-2.377;-0.0662;8.5E-6;19.000;-4.796;-0.1336;1.1E-5;19.000;-4.918;-0.1370;8.3E-6;19.000;-4.873;-0.1357;5.7E-6;19.000;1.236;0.0344;-1.5E-5;19.000;-4.031;-0.1123;8.5E-6;19.000;-0.957;-0.0266;9.9E-6
9.550;-2.362;-0.0658;;19.100;-4.659;-0.1298;1.2E-5;19.100;-4.849;-0.1351;8.6E-6;19.100;-4.764;-0.1327;6.1E-6;19.100;1.385;0.0386;-1.6E-5;19.100;-3.960;-0.1103;8.8E-6;19.100;-0.864;-0.0241;9.5E-6
9.600;-2.345;-0.0653;8.8E-6;19.200;-4.519;-0.1259;1.3E-5;19.200;-4.786;-0.1333;8.9E-6;19.200;-4.656;-0.1297;6.5E-6;19.200;1.574;0.0438;-1.7E-5;19.200;-3.880;-0.1081;9.1E-6;19.200;-0.787;-0.0219;9.0E-6
9.650;-2.328;-0.0648;;19.300;-4.368;-0.1217;1.4E-5;19.300;-4.722;-0.1315;9.3E-6;19.300;-4.549;-0.1267;6.9E-6;19.300;1.767;0.0492;-1.8E-5;19.300;-3.795;-0.1057;9.5E-6;19.300;-0.683;-0.0190;8.2E-6
9.700;-2.309;-0.0643;9.0E-6;19.400;-4.208;-0.1172;1.6E-5;19.400;-4.650;-0.1295;9.7E-6;19.400;-4.444;-0.1238;7.3E-6;19.400;1.953;0.0544;-1.7E-5;19.400;-3.713;-0.1034;1.0E-5;19.400;-0.554;-0.0154;7.1E-6
9.750;-2.292;-0.0638;;19.500;-4.037;-0.1124;1.7E-5;19.500;-4.552;-0.1268;1.0E-5;19.500;-4.332;-0.1207;7.8E-6;19.500;2.130;0.0593;-1.7E-5;19.500;-3.622;-0.1009;1.1E-5;19.500;-0.408;-0.0114;5.5E-6
9.800;-2.271;-0.0633;9.1E-6;19.600;-3.866;-0.1077;1.9E-5;19.600;-4.428;-0.1233;1.1E-5;19.600;-4.214;-0.1174;8.3E-6;19.600;2.298;0.0640;-1.6E-5;19.600;-3.509;-0.0977;1.1E-5;19.600;-0.250;-0.0070;3.7E-6
9.850;-2.249;-0.0627;;19.700;-3.702;-0.1031;2.0E-5;19.700;-4.271;-0.1190;1.2E-5;19.700;-4.097;-0.1141;8.8E-6;19.700;2.455;0.0684;-1.6E-5;19.700;-3.382;-0.0942;1.2E-5;19.700;-0.101;-0.0028;1.9E-6
9.900;-2.227;-0.0620;9.4E-6;19.800;-3.553;-0.0990;2.2E-5;19.800;-4.104;-0.1143;1.3E-5;19.800;-3.988;-0.1111;9.4E-6;19.800;2.592;0.0722;-1.5E-5;19.800;-3.250;-0.0905;1.3E-5;19.800;0.013;3.5000E-4;7.4E-7
9.950;-2.204;-0.0614;;19.900;-3.416;-0.0952;2.3E-5;19.900;-3.949;-0.1100;1.5E-5;19.900;-3.885;-0.1082;9.9E-6;19.900;2.708;0.0754;-1.4E-5;19.900;-3.127;-0.0871;1.4E-5;19.900;0.061;0.0017;2.8E-7
10.000;-2.174;-0.0606;9.7E-6;20.000;-3.285;-0.0915;2.4E-5;20.000;-3.814;-0.1062;1.6E-5;20.000;-3.786;-0.1054;1.0E-5;20.000;2.813;0.0784;-1.3E-5;20.000;-3.005;-0.0837;1.5E-5;20.000;0.064;0.0018;2.4E-7
10.050;-2.139;-0.0596;;20.100;-3.159;-0.0880;2.5E-5;20.100;-3.706;-0.1032;1.7E-5;20.100;-3.688;-0.1027;1.1E-5;20.100;2.911;0.0811;-1.3E-5;20.100;-2.898;-0.0807;1.6E-5;20.100;0.064;0.0018;1.9E-7
10.100;-2.103;-0.0586;1.0E-5;20.200;-3.033;-0.0845;2.5E-5;20.200;-3.619;-0.1008;1.7E-5;20.200;-3.586;-0.0999;1.2E-5;20.200;2.999;0.0835;-1.2E-5;20.200;-2.793;-0.0778;1.7E-5;20.200;0.064;0.0018;1.9E-7
10.150;-2.062;-0.0574;;20.300;-2.912;-0.0811;2.6E-5;20.300;-3.555;-0.0990;1.8E-5;20.300;-3.465;-0.0965;1.3E-5;20.300;3.087;0.0860;-1.2E-5;20.300;-2.680;-0.0746;1.8E-5;20.300;0.064;0.0018;1.8E-7
10.200;-2.023;-0.0564;1.1E-5;20.400;-2.790;-0.0777;2.6E-5;20.400;-3.497;-0.0974;1.8E-5;20.400;-3.336;-0.0929;1.4E-5;20.400;3.179;0.0885;-1.1E-5;20.400;-2.551;-0.0711;2.0E-5;20.400;0.064;0.0018;1.9E-7
10.250;-1.984;-0.0553;;20.500;-2.658;-0.0740;2.7E-5;20.500;-3.427;-0.0955;1.9E-5;20.500;-3.211;-0.0894;1.4E-5;20.500;3.283;0.0914;-1.0E-5;20.500;-2.410;-0.0671;2.1E-5;20.500;0.068;0.0019;1.2E-7
10.300;-1.948;-0.0543;1.1E-5;20.600;-2.518;-0.0701;2.7E-5;20.600;-3.340;-0.0930;2.0E-5;20.600;-3.101;-0.0864;1.5E-5;20.600;3.398;0.0946;-9.8E-6;20.600;-2.273;-0.0633;2.3E-5;20.600;0.086;0.0024;-2.2E-7
10.350;-1.916;-0.0534;;20.700;-2.381;-0.0663;2.7E-5;20.700;-3.233;-0.0900;2.0E-5;20.700;-3.018;-0.0840;1.6E-5;20.700;3.503;0.0976;-9.3E-6;20.700;-2.146;-0.0598;2.4E-5;20.700;0.116;0.0032;-5.2E-7
10.400;-1.890;-0.0526;1.1E-5;20.800;-2.259;-0.0629;2.7E-5;20.800;-3.113;-0.0867;2.1E-5;20.800;-2.952;-0.0822;1.7E-5;20.800;3.616;0.1007;-8.6E-6;20.800;-2.023;-0.0564;2.6E-5;20.800;0.143;0.0040;-8.3E-7
10.450;-1.861;-0.0518;;20.900;-2.161;-0.0602;2.6E-5;20.900;-2.989;-0.0833;2.2E-5;20.900;-2.890;-0.0805;1.7E-5;20.900;3.749;0.1044;-7.9E-6;20.900;-1.907;-0.0531;2.8E-5;20.900;0.159;0.0044;-9.9E-7
10.500;-1.835;-0.0511;1.2E-5;21.000;-2.080;-0.0579;2.6E-5;21.000;-2.870;-0.0799;2.3E-5;21.000;-2.824;-0.0787;1.8E-5;21.000;3.888;0.1083;-7.3E-6;21.000;-1.791;-0.0499;2.9E-5;21.000;0.174;0.0049;-1.3E-6
10.550;-1.808;-0.0504;;21.100;-1.998;-0.0556;2.6E-5;21.100;-2.754;-0.0767;2.3E-5;21.100;-2.752;-0.0767;1.9E-5;21.100;4.006;0.1116;-6.8E-6;21.100;-1.695;-0.0472;3.1E-5;21.100;0.198;0.0055;-1.6E-6
10.600;-1.781;-0.0496;1.2E-5;21.200;-1.910;-0.0532;2.5E-5;21.200;-2.637;-0.0735;2.4E-5;21.200;-2.677;-0.0746;1.9E-5;21.200;4.108;0.1144;-6.4E-6;21.200;-1.590;-0.0443;3.2E-5;21.200;0.217;0.0060;-1.8E-6
10.650;-1.753;-0.0488;;21.300;-1.810;-0.0504;2.5E-5;21.300;-2.526;-0.0703;2.4E-5;21.300;-2.597;-0.0723;2.0E-5;21.300;4.203;0.1171;-6.1E-6;21.300;-1.488;-0.0414;3.4E-5;21.300;0.243;0.0068;-2.2E-6
10.700;-1.725;-0.0480;1.3E-5;21.400;-1.689;-0.0470;2.4E-5;21.400;-2.422;-0.0675;2.4E-5;21.400;-2.513;-0.0700;2.1E-5;21.400;4.310;0.1200;-5.6E-6;21.400;-1.401;-0.0390;3.5E-5;21.400;0.283;0.0079;-2.7E-6
10.750;-1.696;-0.0473;;21.500;-1.560;-0.0434;2.3E-5;21.500;-2.314;-0.0644;2.4E-5;21.500;-2.430;-0.0677;2.2E-5;21.500;4.441;0.1237;-5.1E-6;21.500;-1.324;-0.0369;3.6E-5;21.500;0.325;0.0091;-3.3E-6
10.800;-1.667;-0.0464;1.3E-5;21.600;-1.423;-0.0396;2.2E-5;21.600;-2.207;-0.0615;2.4E-5;21.600;-2.347;-0.0654;2.3E-5;21.600;4.599;0.1281;-4.7E-6;21.600;-1.255;-0.0350;3.7E-5;21.600;0.372;0.0104;-3.8E-6
10.850;-1.635;-0.0455;;21.700;-1.280;-0.0357;2.1E-5;21.700;-2.110;-0.0588;2.3E-5;21.700;-2.267;-0.0631;2.4E-5;21.700;4.761;0.1326;-4.2E-6;21.700;-1.194;-0.0333;3.8E-5;21.700;0.419;0.0117;-4.5E-6
10.900;-1.604;-0.0447;1.4E-5;21.800;-1.129;-0.0315;2.1E-5;21.800;-2.011;-0.0560;2.3E-5;21.800;-2.182;-0.0608;2.5E-5;21.800;4.907;0.1367;-3.9E-6;21.800;-1.134;-0.0316;3.9E-5;21.800;0.478;0.0133;-5.1E-6
10.950;-1.571;-0.0438;;21.900;-0.972;-0.0271;2.0E-5;21.900;-1.920;-0.0535;2.2E-5;21.900;-2.092;-0.0583;2.6E-5;21.900;5.025;0.1400;-3.6E-6;21.900;-1.078;-0.0300;3.9E-5;21.900;0.550;0.0153;-5.9E-6
11.000;-1.538;-0.0428;1.4E-5;22.000;-0.814;-0.0227;1.9E-5;22.000;-1.828;-0.0509;2.2E-5;22.000;-1.990;-0.0554;2.7E-5;22.000;5.138;0.1431;-3.4E-6;22.000;-1.012;-0.0282;4.0E-5;22.000;0.630;0.0175;-6.7E-6
11.050;-1.505;-0.0419;;22.100;-0.664;-0.0185;1.8E-5;22.100;-1.748;-0.0487;2.1E-5;22.100;-1.874;-0.0522;2.8E-5;22.100;5.264;0.1466;-3.1E-6;22.100;-0.936;-0.0261;4.1E-5;22.100;0.705;0.0196;-7.4E-6
11.100;-1.469;-0.0409;1.5E-5;22.200;-0.520;-0.0145;1.8E-5;22.200;-1.679;-0.0468;2.1E-5;22.200;-1.748;-0.0487;2.9E-5;22.200;5.377;0.1498;-2.9E-6;22.200;-0.839;-0.0234;4.2E-5;22.200;0.787;0.0219;-8.1E-6
11.150;-1.434;-0.0399;;22.300;-0.382;-0.0106;1.7E-5;22.300;-1.610;-0.0448;2.0E-5;22.300;-1.618;-0.0451;3.1E-5;22.300;5.484;0.1527;-2.8E-6;22.300;-0.726;-0.0202;4.3E-5;22.300;0.878;0.0245;-8.8E-6
11.200;-1.398;-0.0389;1.5E-5;22.400;-0.248;-0.0069;1.7E-5;22.400;-1.536;-0.0428;2.0E-5;22.400;-1.489;-0.0415;3.2E-5;22.400;5.600;0.1560;-2.6E-6;22.400;-0.613;-0.0171;4.4E-5;22.400;0.971;0.0270;-9.3E-6
11.250;-1.360;-0.0379;;22.500;-0.124;-0.0035;1.7E-5;22.500;-1.453;-0.0405;1.9E-5;22.500;-1.363;-0.0380;3.3E-5;22.500;5.707;0.1589;-2.4E-6;22.500;-0.514;-0.0143;4.5E-5;22.500;1.060;0.0295;-9.8E-6
11.300;-1.321;-0.0368;1.6E-5;22.600;0.003;8.7500E-5;1.7E-5;22.600;-1.362;-0.0379;1.8E-5;22.600;-1.250;-0.0348;3.4E-5;22.600;5.807;0.1617;-2.3E-6;22.600;-0.432;-0.0120;4.6E-5;22.600;1.147;0.0319;-1.0E-5
11.350;-1.280;-0.0357;;22.700;0.143;0.0040;1.7E-5;22.700;-1.257;-0.0350;1.7E-5;22.700;-1.145;-0.0319;3.4E-5;22.700;5.901;0.1644;-2.1E-6;22.700;-0.353;-0.0098;4.6E-5;22.700;1.228;0.0342;-1.0E-5
11.400;-1.239;-0.0345;1.7E-5;22.800;0.278;0.0077;1.7E-5;22.800;-1.142;-0.0318;1.6E-5;22.800;-1.045;-0.0291;3.5E-5;22.800;5.991;0.1669;-2.0E-6;22.800;-0.272;-0.0076;4.7E-5;22.800;1.299;0.0362;-1.0E-5
11.450;-1.199;-0.0334;;22.900;0.402;0.0112;1.7E-5;22.900;-1.026;-0.0286;1.4E-5;22.900;-0.936;-0.0261;3.5E-5;22.900;6.071;0.1691;-1.9E-6;22.900;-0.181;-0.0050;4.7E-5;22.900;1.356;0.0378;-1.1E-5
11.500;-1.158;-0.0322;1.7E-5;23.000;0.515;0.0144;1.8E-5;23.000;-0.908;-0.0253;1.3E-5;23.000;-0.829;-0.0231;3.6E-5;23.000;6.142;0.1711;-1.9E-6;23.000;-0.086;-0.0024;4.7E-5;23.000;1.400;0.0390;-1.1E-5
11.550;-1.115;-0.0311;;23.100;0.624;0.0174;1.8E-5;23.100;-0.790;-0.0220;1.2E-5;23.100;-0.719;-0.0200;3.6E-5;23.100;6.211;0.1730;-1.8E-6;23.100;0.005;1.3125E-4;4.7E-5;23.100;1.444;0.0402;-1.1E-5
11.600;-1.071;-0.0298;1.8E-5;23.200;0.730;0.0203;1.8E-5;23.200;-0.672;-0.0187;1.0E-5;23.200;-0.614;-0.0171;3.6E-5;23.200;6.286;0.1751;-1.8E-6;23.200;0.086;0.0024;4.7E-5;23.200;1.502;0.0418;-1.1E-5
11.650;-1.027;-0.0286;;23.300;0.837;0.0233;1.9E-5;23.300;-0.542;-0.0151;9.0E-6;23.300;-0.514;-0.0143;3.6E-5;23.300;6.373;0.1775;-1.7E-6;23.300;0.165;0.0046;4.7E-5;23.300;1.579;0.0440;-1.1E-5
11.700;-0.985;-0.0274;1.9E-5;23.400;0.933;0.0260;1.9E-5;23.400;-0.412;-0.0115;7.6E-6;23.400;-0.418;-0.0116;3.6E-5;23.400;6.469;0.1802;-1.6E-6;23.400;0.243;0.0068;4.7E-5;23.400;1.648;0.0459;-1.0E-5
11.750;-0.944;-0.0263;;23.500;1.021;0.0284;2.0E-5;23.500;-0.287;-0.0080;6.3E-6;23.500;-0.324;-0.0090;3.7E-5;23.500;6.575;0.1831;-1.5E-6;23.500;0.320;0.0089;4.6E-5;23.500;1.701;0.0474;-1.0E-5
11.800;-0.908;-0.0253;1.9E-5;23.600;1.089;0.0303;2.0E-5;23.600;-0.165;-0.0046;4.8E-6;23.600;-0.240;-0.0067;3.7E-5;23.600;6.684;0.1862;-1.4E-6;23.600;0.402;0.0112;4.6E-5;23.600;1.758;0.0490;-1.0E-5
11.850;-0.873;-0.0243;;23.700;1.155;0.0322;2.0E-5;23.700;-0.025;-7.0000E-4;3.3E-6;23.700;-0.173;-0.0048;3.7E-5;23.700;6.809;0.1897;-1.3E-6;23.700;0.487;0.0136;4.6E-5;23.700;1.808;0.0504;-1.0E-5
11.900;-0.839;-0.0234;2.0E-5;23.800;1.224;0.0341;2.1E-5;23.800;0.119;0.0033;1.8E-6;23.800;-0.116;-0.0032;3.7E-5;23.800;6.952;0.1936;-1.2E-6;23.800;0.580;0.0161;4.5E-5;23.800;1.874;0.0522;-9.9E-6
11.950;-0.800;-0.0223;;23.900;1.302;0.0363;2.1E-5;23.900;0.242;0.0067;5.3E-7;23.900;-0.066;-0.0018;3.7E-5;23.900;7.094;0.1976;-1.1E-6;23.900;0.683;0.0190;4.4E-5;23.900;1.956;0.0545;-9.6E-6
12.000;-0.759;-0.0211;2.1E-5;24.000;1.395;0.0389;2.2E-5;24.000;0.344;0.0096;-4.8E-7;24.000;-0.017;-4.8125E-4;3.7E-5;24.000;7.223;0.2012;-1.1E-6;24.000;0.796;0.0222;4.3E-5;24.000;2.028;0.0565;-9.4E-6
12.050;-0.718;-0.0200;;24.100;1.491;0.0415;2.3E-5;24.100;0.437;0.0122;-1.5E-6;24.100;0.044;0.0012;3.7E-5;24.100;7.345;0.2046;-1.0E-6;24.100;0.905;0.0252;4.2E-5;24.100;2.092;0.0583;-9.2E-6
12.100;-0.680;-0.0189;2.1E-5;24.200;1.604;0.0447;2.4E-5;24.200;0.512;0.0143;-2.5E-6;24.200;0.118;0.0033;3.7E-5;24.200;7.472;0.2081;-9.1E-7;24.200;0.999;0.0278;4.1E-5;24.200;2.135;0.0595;-9.1E-6
12.150;-0.646;-0.0180;;24.300;1.723;0.0480;2.4E-5;24.300;0.602;0.0168;-3.4E-6;24.300;0.192;0.0053;3.7E-5;24.300;7.592;0.2114;-8.4E-7;24.300;1.089;0.0303;4.0E-5;24.300;2.169;0.0604;-8.9E-6
12.200;-0.611;-0.0170;2.2E-5;24.400;1.843;0.0513;2.5E-5;24.400;0.691;0.0193;-4.4E-6;24.400;0.272;0.0076;3.7E-5;24.400;7.709;0.2147;-7.9E-7;24.400;1.175;0.0327;3.9E-5;24.400;2.210;0.0616;-8.8E-6
12.250;-0.581;-0.0162;;24.500;1.962;0.0546;2.6E-5;24.500;0.787;0.0219;-5.4E-6;24.500;0.360;0.0100;3.7E-5;24.500;7.791;0.2170;-8.0E-7;24.500;1.253;0.0349;3.8E-5;24.500;2.248;0.0626;-8.6E-6
12.300;-0.554;-0.0154;2.2E-5;24.600;2.084;0.0581;2.6E-5;24.600;0.884;0.0246;-6.5E-6;24.600;0.449;0.0125;3.7E-5;24.600;7.862;0.2190;-8.1E-7;24.600;1.323;0.0368;3.7E-5;24.600;2.281;0.0635;-8.5E-6
12.350;-0.536;-0.0149;;24.700;2.216;0.0617;2.7E-5;24.700;0.972;0.0271;-7.4E-6;24.700;0.553;0.0154;3.7E-5;24.700;7.922;0.2206;-8.4E-7;24.700;1.387;0.0386;3.6E-5;24.700;2.320;0.0646;-8.4E-6
12.400;-0.518;-0.0144;2.2E-5;24.800;2.344;0.0653;2.7E-5;24.800;1.052;0.0293;-8.2E-6;24.800;0.660;0.0184;3.7E-5;24.800;7.970;0.2220;-7.9E-7;24.800;1.450;0.0404;3.5E-5;24.800;2.359;0.0657;-8.2E-6
12.450;-0.500;-0.0139;;24.900;2.465;0.0686;2.7E-5;24.900;1.125;0.0313;-9.0E-6;24.900;0.757;0.0211;3.7E-5;24.900;8.020;0.2234;-7.5E-7;24.900;1.517;0.0423;3.4E-5;24.900;2.405;0.0670;-8.0E-6
12.500;-0.479;-0.0133;2.3E-5;25.000;2.586;0.0720;2.7E-5;25.000;1.194;0.0333;-9.9E-6;25.000;0.840;0.0234;3.7E-5;25.000;8.080;0.2250;-7.3E-7;25.000;1.582;0.0441;3.3E-5;25.000;2.454;0.0683;-7.8E-6
12.550;-0.460;-0.0128;;25.100;2.706;0.0754;2.7E-5;25.100;1.250;0.0348;-1.0E-5;25.100;0.908;0.0253;3.7E-5;25.100;8.152;0.2271;-6.8E-7;25.100;1.638;0.0456;3.3E-5;25.100;2.512;0.0700;-7.6E-6
12.600;-0.443;-0.0123;2.3E-5;25.200;2.834;0.0789;2.6E-5;25.200;1.293;0.0360;-1.1E-5;25.200;0.971;0.0270;3.6E-5;25.200;8.231;0.2292;-6.8E-7;25.200;1.692;0.0471;3.2E-5;25.200;2.571;0.0716;-7.3E-6
12.650;-0.427;-0.0119;;25.300;2.956;0.0823;2.6E-5;25.300;1.341;0.0374;-1.1E-5;25.300;1.049;0.0292;3.6E-5;25.300;8.325;0.2319;-6.4E-7;25.300;1.750;0.0487;3.1E-5;25.300;2.637;0.0735;-7.1E-6
12.700;-0.410;-0.0114;2.3E-5;25.400;3.074;0.0856;2.5E-5;25.400;1.396;0.0389;-1.2E-5;25.400;1.144;0.0318;3.6E-5;25.400;8.421;0.2345;-6.6E-7;25.400;1.808;0.0504;3.0E-5;25.400;2.702;0.0753;-6.9E-6
12.750;-0.390;-0.0109;;25.500;3.179;0.0886;2.4E-5;25.500;1.459;0.0406;-1.3E-5;25.500;1.250;0.0348;3.6E-5;25.500;8.504;0.2369;-6.5E-7;25.500;1.863;0.0519;2.9E-5;25.500;2.752;0.0767;-6.6E-6
12.800;-0.368;-0.0102;2.3E-5;25.600;3.269;0.0910;2.4E-5;25.600;1.528;0.0426;-1.4E-5;25.600;1.371;0.0382;3.5E-5;25.600;8.578;0.2389;-5.5E-7;25.600;1.918;0.0534;2.9E-5;25.600;2.823;0.0786;-6.3E-6
12.850;-0.346;-0.0096;;25.700;3.352;0.0934;2.3E-5;25.700;1.596;0.0445;-1.4E-5;25.700;1.503;0.0419;3.5E-5;25.700;8.636;0.2405;-5.6E-7;25.700;1.971;0.0549;2.8E-5;25.700;2.889;0.0805;-6.0E-6
12.900;-0.325;-0.0091;2.4E-5;25.800;3.435;0.0957;2.2E-5;25.800;1.663;0.0463;-1.5E-5;25.800;1.637;0.0456;3.4E-5;25.800;8.710;0.2426;-5.6E-7;25.800;2.015;0.0561;2.7E-5;25.800;2.945;0.0820;-5.8E-6
12.950;-0.303;-0.0084;;25.900;3.519;0.0980;2.2E-5;25.900;1.729;0.0482;-1.6E-5;25.900;1.756;0.0489;3.3E-5;25.900;8.790;0.2448;-5.5E-7;25.900;2.051;0.0571;2.7E-5;25.900;3.002;0.0836;-5.7E-6
13.000;-0.280;-0.0078;2.4E-5;26.000;3.599;0.1002;2.1E-5;26.000;1.797;0.0501;-1.7E-5;26.000;1.865;0.0519;3.2E-5;26.000;8.866;0.2469;-5.4E-7;26.000;2.091;0.0582;2.6E-5;26.000;3.052;0.0850;-5.5E-6
13.050;-0.254;-0.0071;;26.100;3.682;0.1026;2.0E-5;26.100;1.866;0.0520;-1.7E-5;26.100;1.973;0.0549;3.1E-5;26.100;8.925;0.2486;-5.7E-7;26.100;2.132;0.0594;2.6E-5;26.100;3.110;0.0866;-5.3E-6
13.100;-0.229;-0.0064;2.4E-5;26.200;3.765;0.1049;1.9E-5;26.200;1.942;0.0541;-1.8E-5;26.200;2.075;0.0578;3.0E-5;26.200;8.971;0.2499;-5.7E-7;26.200;2.172;0.0605;2.5E-5;26.200;3.179;0.0886;-5.0E-6
13.150;-0.203;-0.0056;;26.300;3.839;0.1069;1.9E-5;26.300;2.028;0.0565;-1.9E-5;26.300;2.166;0.0603;2.9E-5;26.300;9.016;0.2511;-5.2E-7;26.300;2.213;0.0616;2.5E-5;26.300;3.258;0.0907;-4.8E-6
13.200;-0.181;-0.0050;2.5E-5;26.400;3.922;0.1092;1.8E-5;26.400;2.132;0.0594;-2.0E-5;26.400;2.242;0.0624;2.9E-5;26.400;9.064;0.2524;-5.4E-7;26.400;2.254;0.0628;2.4E-5;26.400;3.327;0.0927;-4.6E-6
13.250;-0.163;-0.0046;;26.500;4.010;0.1117;1.7E-5;26.500;2.235;0.0623;-2.1E-5;26.500;2.304;0.0642;2.8E-5;26.500;9.109;0.2537;-5.2E-7;26.500;2.284;0.0636;2.4E-5;26.500;3.380;0.0941;-4.4E-6
13.300;-0.149;-0.0042;2.5E-5;26.600;4.092;0.1140;1.7E-5;26.600;2.339;0.0651;-2.1E-5;26.600;2.361;0.0658;2.8E-5;26.600;9.155;0.2550;-4.8E-7;26.600;2.325;0.0647;2.3E-5;26.600;3.431;0.0956;-4.3E-6
13.350;-0.137;-0.0038;;26.700;4.167;0.1161;1.6E-5;26.700;2.432;0.0677;-2.2E-5;26.700;2.416;0.0673;2.7E-5;26.700;9.194;0.2561;-5.2E-7;26.700;2.383;0.0664;2.2E-5;26.700;3.478;0.0969;-4.1E-6
13.400;-0.127;-0.0035;2.5E-5;26.800;4.254;0.1185;1.5E-5;26.800;2.521;0.0702;-2.3E-5;26.800;2.468;0.0687;2.6E-5;26.800;9.221;0.2568;-4.7E-7;26.800;2.446;0.0681;2.2E-5;26.800;3.537;0.0985;-4.0E-6
13.450;-0.119;-0.0033;;26.900;4.337;0.1208;1.4E-5;26.900;2.601;0.0725;-2.3E-5;26.900;2.515;0.0700;2.6E-5;26.900;9.238;0.2573;-4.6E-7;26.900;2.502;0.0697;2.1E-5;26.900;3.619;0.1008;-3.8E-6
13.500;-0.110;-0.0031;2.5E-5;27.000;4.420;0.1231;1.4E-5;27.000;2.677;0.0746;-2.3E-5;27.000;2.559;0.0713;2.5E-5;27.000;9.272;0.2583;-4.8E-7;27.000;2.564;0.0714;2.0E-5;27.000;3.732;0.1040;-3.5E-6
13.550;-0.099;-0.0028;;27.100;4.514;0.1257;1.3E-5;27.100;2.739;0.0763;-2.3E-5;27.100;2.604;0.0725;2.5E-5;27.100;9.320;0.2596;-4.8E-7;27.100;2.623;0.0731;2.0E-5;27.100;3.866;0.1077;-3.2E-6
13.600;-0.088;-0.0025;2.5E-5;27.200;4.613;0.1285;1.2E-5;27.200;2.790;0.0777;-2.4E-5;27.200;2.658;0.0740;2.4E-5;27.200;9.384;0.2614;-4.8E-7;27.200;2.688;0.0749;1.9E-5;27.200;4.001;0.1114;-3.0E-6
13.650;-0.080;-0.0022;;27.300;4.716;0.1313;1.1E-5;27.300;2.838;0.0791;-2.4E-5;27.300;2.708;0.0754;2.4E-5;27.300;9.451;0.2632;-4.4E-7;27.300;2.747;0.0765;1.8E-5;27.300;4.123;0.1148;-2.7E-6
13.700;-0.071;-0.0020;2.5E-5;27.400;4.802;0.1337;1.1E-5;27.400;2.890;0.0805;-2.4E-5;27.400;2.750;0.0766;2.3E-5;27.400;9.491;0.2643;-4.3E-7;27.400;2.807;0.0782;1.8E-5;27.400;4.221;0.1176;-2.6E-6
13.750;-0.061;-0.0017;;27.500;4.880;0.1359;1.0E-5;27.500;2.950;0.0822;-2.4E-5;27.500;2.785;0.0776;2.3E-5;27.500;9.492;0.2644;-4.7E-7;27.500;2.884;0.0803;1.7E-5;27.500;4.304;0.1199;-2.5E-6
13.800;-0.050;-0.0014;2.5E-5;27.600;4.967;0.1383;9.8E-6;27.600;3.027;0.0843;-2.4E-5;27.600;2.813;0.0784;2.3E-5;27.600;9.491;0.2643;-4.5E-7;27.600;2.955;0.0823;1.6E-5;27.600;4.373;0.1218;-2.4E-6
13.850;-0.038;-0.0011;;27.700;5.063;0.1410;9.2E-6;27.700;3.107;0.0865;-2.4E-5;27.700;2.846;0.0793;2.2E-5;27.700;9.489;0.2643;-4.3E-7;27.700;3.011;0.0839;1.6E-5;27.700;4.431;0.1234;-2.4E-6
13.900;-0.025;-7.0000E-4;2.5E-5;27.800;5.160;0.1437;8.6E-6;27.800;3.175;0.0884;-2.3E-5;27.800;2.889;0.0805;2.2E-5;27.800;9.491;0.2643;-3.8E-7;27.800;3.066;0.0854;1.5E-5;27.800;4.481;0.1248;-2.3E-6
13.950;-0.013;-3.5000E-4;;27.900;5.262;0.1466;8.0E-6;27.900;3.233;0.0900;-2.3E-5;27.900;2.936;0.0818;2.1E-5;27.900;9.491;0.2643;-3.7E-7;27.900;3.121;0.0869;1.5E-5;27.900;4.527;0.1261;-2.1E-6
14.000;-0.002;-4.3750E-5;2.5E-5;28.000;5.374;0.1497;7.4E-6;28.000;3.300;0.0919;-2.3E-5;28.000;2.981;0.0830;2.1E-5;28.000;9.491;0.2643;-3.9E-7;28.000;3.182;0.0886;1.4E-5;28.000;4.576;0.1274;-2.1E-6
14.050;0.006;1.7500E-4;;28.100;5.479;0.1526;6.9E-6;28.100;3.362;0.0936;-2.3E-5;28.100;3.016;0.0840;2.0E-5;28.100;9.489;0.2643;-4.2E-7;28.100;3.237;0.0902;1.4E-5;28.100;4.629;0.1289;-2.0E-6
14.100;0.014;3.9375E-4;2.5E-5;28.200;5.589;0.1557;6.4E-6;28.200;3.431;0.0956;-2.2E-5;28.200;3.052;0.0850;2.0E-5;28.200;9.489;0.2643;-3.9E-7;28.200;3.286;0.0915;1.4E-5;28.200;4.689;0.1306;-2.0E-6
14.150;0.024;6.5625E-4;;28.300;5.708;0.1590;5.9E-6;28.300;3.506;0.0977;-2.2E-5;28.300;3.109;0.0866;1.9E-5;28.300;9.491;0.2643;-3.7E-7;28.300;3.330;0.0927;1.3E-5;28.300;4.747;0.1322;-1.9E-6
14.200;0.035;9.6250E-4;2.5E-5;28.400;5.828;0.1623;5.4E-6;28.400;3.578;0.0997;-2.2E-5;28.400;3.175;0.0884;1.9E-5;28.400;9.489;0.2643;-3.6E-7;28.400;3.374;0.0940;1.3E-5;28.400;4.811;0.1340;-1.8E-6
14.250;0.046;0.0013;;28.500;5.947;0.1656;5.0E-6;28.500;3.624;0.1009;-2.1E-5;28.500;3.242;0.0903;1.8E-5;28.500;9.489;0.2643;-3.9E-7;28.500;3.421;0.0953;1.3E-5;28.500;4.876;0.1358;-1.7E-6
14.300;0.053;0.0015;2.5E-5;28.600;6.073;0.1691;4.6E-6;28.600;3.636;0.1013;-2.1E-5;28.600;3.308;0.0921;1.7E-5;28.600;9.491;0.2643;-3.7E-7;28.600;3.468;0.0966;1.2E-5;28.600;4.942;0.1376;-1.7E-6
14.350;0.063;0.0017;;28.700;6.194;0.1725;4.2E-6;28.700;3.649;0.1016;-2.1E-5;28.700;3.363;0.0937;1.7E-5;28.700;9.491;0.2643;-3.5E-7;28.700;3.522;0.0981;1.2E-5;28.700;4.995;0.1391;-1.7E-6
14.400;0.071;0.0020;2.5E-5;28.800;6.308;0.1757;3.9E-6;28.800;3.684;0.1026;-2.1E-5;28.800;3.410;0.0950;1.7E-5;28.800;9.491;0.2643;-3.3E-7;28.800;3.585;0.0998;1.1E-5;28.800;5.044;0.1405;-1.6E-6
14.450;0.079;0.0022;;28.900;6.406;0.1784;3.6E-6;28.900;3.721;0.1036;-2.1E-5;28.900;3.454;0.0962;1.6E-5;28.900;9.491;0.2643;-3.2E-7;28.900;3.652;0.1017;1.1E-5;28.900;5.093;0.1418;-1.5E-6
14.500;0.088;0.0024;2.5E-5;29.000;6.481;0.1805;3.4E-6;29.000;3.790;0.1056;-2.0E-5;29.000;3.500;0.0975;1.6E-5;29.000;9.491;0.2643;-3.4E-7;29.000;3.721;0.1036;1.1E-5;29.000;5.151;0.1435;-1.5E-6
14.550;0.096;0.0027;;29.100;6.555;0.1826;3.3E-6;29.100;3.914;0.1090;-1.9E-5;29.100;3.558;0.0991;1.5E-5;29.100;9.491;0.2643;-3.8E-7;29.100;3.795;0.1057;1.0E-5;29.100;5.232;0.1457;-1.4E-6
14.600;0.104;0.0029;2.5E-5;29.200;6.629;0.1846;3.1E-6;29.200;4.032;0.1123;-1.8E-5;29.200;3.627;0.1010;1.5E-5;29.200;9.491;0.2643;-3.5E-7;29.200;3.881;0.1081;9.7E-6;29.200;5.305;0.1477;-1.3E-6
14.650;0.113;0.0031;;29.300;6.710;0.1869;2.9E-6;29.300;4.083;0.1137;-1.8E-5;29.300;3.701;0.1031;1.4E-5;29.300;9.491;0.2643;-3.5E-7;29.300;3.969;0.1106;9.3E-6;29.300;5.350;0.1490;-1.2E-6
14.700;0.126;0.0035;2.5E-5;29.400;6.791;0.1891;2.7E-6;29.400;4.086;0.1138;-1.8E-5;29.400;3.776;0.1052;1.3E-5;29.400;9.491;0.2643;-3.5E-7;29.400;4.046;0.1127;8.9E-6;29.400;5.383;0.1499;-1.3E-6
14.750;0.140;0.0039;;29.500;6.872;0.1914;2.6E-6;29.500;4.097;0.1141;-1.8E-5;29.500;3.852;0.1073;1.3E-5;29.500;9.491;0.2643;-3.5E-7;29.500;4.111;0.1145;8.6E-6;29.500;5.411;0.1507;-1.3E-6
14.800;0.157;0.0044;2.6E-5;29.600;6.957;0.1938;2.4E-6;29.600;4.142;0.1154;-1.7E-5;29.600;3.925;0.1093;1.2E-5;29.600;9.491;0.2643;-3.7E-7;29.600;4.175;0.1163;8.3E-6;29.600;5.451;0.1518;-1.2E-6
14.850;0.176;0.0049;;29.700;7.032;0.1959;2.3E-6;29.700;4.222;0.1176;-1.7E-5;29.700;4.001;0.1114;1.2E-5;29.700;9.491;0.2643;-4.0E-7;29.700;4.230;0.1178;8.1E-6;29.700;5.503;0.1533;-1.1E-6
14.900;0.196;0.0055;2.6E-5;29.800;7.106;0.1979;2.2E-6;29.800;4.331;0.1206;-1.6E-5;29.800;4.086;0.1138;1.1E-5;29.800;9.491;0.2643;-4.2E-7;29.800;4.277;0.1191;7.9E-6;29.800;5.561;0.1549;-1.1E-6
14.950;0.218;0.0061;;29.900;7.174;0.1998;2.0E-6;29.900;4.464;0.1243;-1.5E-5;29.900;4.167;0.1161;1.1E-5;29.900;9.491;0.2643;-4.0E-7;29.900;4.329;0.1206;7.8E-6;29.900;5.620;0.1565;-1.1E-6
15.000;0.242;0.0067;2.6E-5;30.000;7.248;0.2019;1.9E-6;30.000;4.604;0.1282;-1.4E-5;30.000;4.251;0.1184;1.0E-5;30.000;9.491;0.2643;-4.0E-7;30.000;4.376;0.1219;7.5E-6;30.000;5.678;0.1582;-1.0E-6
15.050;0.264;0.0073;;30.100;7.332;0.2042;1.8E-6;30.100;4.750;0.1323;-1.2E-5;30.100;4.337;0.1208;9.9E-6;30.100;9.491;0.2643;-3.6E-7;30.100;4.450;0.1239;7.2E-6;30.100;5.738;0.1598;-1.0E-6
15.100;0.286;0.0080;2.6E-5;30.200;7.413;0.2065;1.7E-6;30.200;4.902;0.1365;-1.1E-5;30.200;4.425;0.1232;9.4E-6;30.200;9.491;0.2643;-3.4E-7;30.200;4.533;0.1263;6.8E-6;30.200;5.788;0.1612;-1.0E-6
15.150;0.308;0.0086;;30.300;7.499;0.2089;1.6E-6;30.300;5.038;0.1403;-1.1E-5;30.300;4.510;0.1256;9.0E-6;;;;;30.300;4.609;0.1284;6.6E-6;30.300;5.847;0.1628;-9.3E-7
15.200;0.330;0.0092;2.6E-5;30.400;7.567;0.2107;1.5E-6;30.400;5.152;0.1435;-9.9E-6;30.400;4.588;0.1278;8.6E-6;;;;;30.400;4.676;0.1302;6.3E-6;30.400;5.914;0.1647;-9.2E-7
15.250;0.350;0.0098;;30.500;7.633;0.2126;1.4E-6;30.500;5.253;0.1463;-9.4E-6;30.500;4.659;0.1298;8.3E-6;;;;;30.500;4.742;0.1321;6.1E-6;30.500;5.986;0.1667;-8.9E-7
15.300;0.369;0.0103;2.5E-5;30.600;7.702;0.2145;1.4E-6;30.600;5.353;0.1491;-8.8E-6;30.600;4.719;0.1314;8.0E-6;;;;;30.600;4.810;0.1340;6.0E-6;30.600;6.071;0.1691;-7.9E-7
15.350;0.386;0.0108;;30.700;7.775;0.2166;1.2E-6;30.700;5.455;0.1519;-8.3E-6;30.700;4.778;0.1331;7.8E-6;;;;;30.700;4.873;0.1357;5.8E-6;30.700;6.156;0.1715;-7.8E-7
15.400;0.402;0.0112;2.5E-5;30.800;7.854;0.2188;1.1E-6;30.800;5.561;0.1549;-7.7E-6;30.800;4.840;0.1348;7.5E-6;;;;;30.800;4.921;0.1371;5.7E-6;30.800;6.233;0.1736;-7.3E-7
15.450;0.418;0.0116;;30.900;7.937;0.2211;9.8E-7;30.900;5.664;0.1578;-7.2E-6;30.900;4.902;0.1365;7.2E-6;;;;;30.900;4.959;0.1381;5.6E-6;30.900;6.294;0.1753;-7.3E-7
15.500;0.430;0.0120;2.5E-5;31.000;8.024;0.2235;8.8E-7;31.000;5.773;0.1608;-6.8E-6;31.000;4.957;0.1381;7.0E-6;;;;;31.000;4.995;0.1391;5.4E-6;31.000;6.340;0.1766;-7.2E-7
15.550;0.441;0.0123;;31.100;8.101;0.2256;8.3E-7;31.100;5.883;0.1638;-6.3E-6;31.100;5.006;0.1394;6.9E-6;;;;;31.100;5.056;0.1408;5.2E-6;31.100;6.387;0.1779;-8.0E-7
15.600;0.451;0.0126;2.5E-5;31.200;8.163;0.2274;7.6E-7;31.200;5.983;0.1666;-5.9E-6;31.200;5.055;0.1408;6.7E-6;;;;;31.200;5.119;0.1426;5.1E-6;31.200;6.436;0.1792;-7.6E-7
15.650;0.463;0.0129;;31.300;8.218;0.2289;7.9E-7;31.300;6.077;0.1693;-5.6E-6;31.300;5.100;0.1421;6.5E-6;;;;;31.300;5.176;0.1442;4.9E-6;31.300;6.489;0.1807;-7.4E-7
15.700;0.479;0.0133;2.5E-5;31.400;8.283;0.2307;7.0E-7;31.400;6.164;0.1717;-5.3E-6;31.400;5.151;0.1435;6.4E-6;;;;;31.400;5.243;0.1460;4.8E-6;31.400;6.538;0.1821;-7.2E-7
15.750;0.496;0.0138;;31.500;8.350;0.2326;6.3E-7;31.500;6.250;0.1741;-5.0E-6;31.500;5.206;0.1450;6.2E-6;;;;;31.500;5.305;0.1477;4.7E-6;31.500;6.588;0.1835;-6.6E-7
15.800;0.517;0.0144;2.5E-5;31.600;8.416;0.2344;5.9E-7;31.600;6.355;0.1770;-4.7E-6;31.600;5.268;0.1467;6.0E-6;;;;;31.600;5.358;0.1492;4.5E-6;31.600;6.635;0.1848;-7.0E-7
15.850;0.537;0.0150;;31.700;8.487;0.2364;5.4E-7;31.700;6.481;0.1805;-4.4E-6;31.700;5.333;0.1485;5.8E-6;;;;;31.700;5.404;0.1505;4.4E-6;31.700;6.679;0.1860;-6.5E-7
15.900;0.556;0.0155;2.5E-5;31.800;8.564;0.2385;4.5E-7;31.800;6.589;0.1835;-4.1E-6;31.800;5.399;0.1504;5.6E-6;;;;;31.800;5.446;0.1517;4.3E-6;31.800;6.718;0.1871;-6.3E-7
15.950;0.575;0.0160;;31.900;8.639;0.2406;4.1E-7;31.900;6.681;0.1861;-3.9E-6;31.900;5.466;0.1522;5.4E-6;;;;;31.900;5.468;0.1523;4.3E-6;31.900;6.758;0.1882;-5.7E-7
16.000;0.594;0.0165;2.5E-5;32.000;8.696;0.2422;3.1E-7;32.000;6.756;0.1882;-3.8E-6;32.000;5.532;0.1541;5.2E-6;;;;;32.000;5.493;0.1530;4.2E-6;32.000;6.802;0.1894;-5.6E-7
16.050;0.613;0.0171;;32.100;8.745;0.2436;2.6E-7;32.100;6.838;0.1904;-3.6E-6;32.100;5.595;0.1558;5.0E-6;;;;;32.100;5.535;0.1542;4.2E-6;32.100;6.852;0.1908;-5.7E-7
16.100;0.628;0.0175;2.5E-5;32.200;8.793;0.2449;2.8E-7;32.200;6.912;0.1925;-3.4E-6;32.200;5.664;0.1578;4.8E-6;;;;;32.200;5.587;0.1556;4.0E-6;32.200;6.915;0.1926;-5.3E-7
16.150;0.644;0.0179;;32.300;8.818;0.2456;2.5E-7;32.300;6.995;0.1948;-3.3E-6;32.300;5.730;0.1596;4.7E-6;;;;;32.300;5.638;0.1570;4.0E-6;32.300;6.976;0.1943;-5.3E-7
16.200;0.658;0.0183;2.5E-5;32.400;8.822;0.2457;3.1E-7;32.400;7.072;0.1970;-3.1E-6;32.400;5.793;0.1613;4.6E-6;;;;;32.400;5.696;0.1586;3.8E-6;32.400;7.040;0.1961;-5.0E-7
16.250;0.672;0.0187;;32.500;8.833;0.2460;2.4E-7;32.500;7.150;0.1992;-3.0E-6;32.500;5.872;0.1635;4.4E-6;;;;;32.500;5.751;0.1602;3.8E-6;32.500;7.103;0.1978;-5.3E-7
16.300;0.686;0.0191;2.5E-5;32.600;8.858;0.2467;2.6E-7;32.600;7.235;0.2015;-2.8E-6;32.600;5.958;0.1659;4.2E-6;;;;;32.600;5.809;0.1618;3.7E-6;32.600;7.166;0.1996;-5.1E-7
16.350;0.697;0.0194;;32.700;8.859;0.2468;2.2E-7;32.700;7.309;0.2036;-2.7E-6;32.700;6.038;0.1682;4.0E-6;;;;;32.700;5.865;0.1634;3.6E-6;32.700;7.234;0.2015;-5.2E-7
16.400;0.708;0.0197;2.4E-5;32.800;8.858;0.2467;2.4E-7;32.800;7.372;0.2053;-2.6E-6;32.800;6.112;0.1702;3.9E-6;;;;;32.800;5.916;0.1648;3.5E-6;32.800;7.295;0.2032;-4.6E-7
16.450;0.723;0.0201;;32.900;8.858;0.2467;3.0E-7;32.900;7.425;0.2068;-2.6E-6;32.900;6.186;0.1723;3.8E-6;;;;;32.900;5.972;0.1663;3.4E-6;32.900;7.353;0.2048;-4.4E-7
16.500;0.740;0.0206;2.4E-5;33.000;8.856;0.2467;2.9E-7;33.000;7.468;0.2080;-2.6E-6;33.000;6.247;0.1740;3.7E-6;;;;;33.000;6.029;0.1679;3.3E-6;33.000;7.394;0.2059;-4.5E-7
16.550;0.756;0.0210;;33.100;8.855;0.2466;3.0E-7;33.100;7.501;0.2089;-2.6E-6;33.100;6.297;0.1754;3.5E-6;;;;;33.100;6.090;0.1696;3.2E-6;33.100;7.427;0.2069;-4.8E-7
16.600;0.767;0.0213;2.4E-5;33.200;8.856;0.2467;3.0E-7;33.200;7.535;0.2099;-2.5E-6;33.200;6.354;0.1770;3.5E-6;;;;;33.200;6.154;0.1714;3.1E-6;33.200;7.468;0.2080;-4.8E-7
16.650;0.779;0.0217;;33.300;8.856;0.2467;2.8E-7;33.300;7.584;0.2112;-2.4E-6;33.300;6.409;0.1785;3.4E-6;;;;;33.300;6.202;0.1727;3.1E-6;33.300;7.513;0.2093;-4.4E-7
16.700;0.790;0.0220;2.4E-5;33.400;8.856;0.2467;2.1E-7;33.400;7.644;0.2129;-2.4E-6;33.400;6.473;0.1803;3.2E-6;;;;;33.400;6.260;0.1743;3.0E-6;33.400;7.556;0.2104;-3.9E-7
16.750;0.804;0.0224;;33.500;8.856;0.2467;2.1E-7;33.500;7.711;0.2148;-2.3E-6;33.500;6.550;0.1824;3.1E-6;;;;;33.500;6.315;0.1759;3.0E-6;33.500;7.604;0.2118;-3.8E-7
16.800;0.820;0.0228;2.4E-5;33.600;8.856;0.2467;1.8E-7;33.600;7.791;0.2170;-2.2E-6;33.600;6.613;0.1842;3.1E-6;;;;;33.600;6.373;0.1775;2.9E-6;33.600;7.654;0.2132;-3.7E-7
16.850;0.834;0.0232;;33.700;8.856;0.2467;2.3E-7;33.700;7.879;0.2195;-2.1E-6;33.700;6.663;0.1856;3.0E-6;;;;;33.700;6.426;0.1790;2.9E-6;33.700;7.702;0.2145;-4.1E-7
16.900;0.848;0.0236;2.4E-5;33.800;8.856;0.2467;2.1E-7;33.800;7.970;0.2220;-2.0E-6;33.800;6.704;0.1867;2.9E-6;;;;;33.800;6.450;0.1796;2.8E-6;33.800;7.742;0.2156;-3.9E-7
16.950;0.858;0.0239;;33.900;8.856;0.2467;1.8E-7;33.900;8.061;0.2245;-1.9E-6;33.900;6.742;0.1878;2.9E-6;;;;;33.900;6.464;0.1800;2.8E-6;33.900;7.775;0.2166;-4.1E-7
17.000;0.864;0.0241;2.4E-5;34.000;8.856;0.2467;1.6E-7;34.000;8.137;0.2266;-1.9E-6;34.000;6.778;0.1888;2.8E-6;;;;;34.000;6.516;0.1815;2.7E-6;34.000;7.802;0.2173;-3.8E-7
17.050;0.866;0.0241;;34.100;8.856;0.2467;1.9E-7;34.100;8.204;0.2285;-1.8E-6;34.100;6.814;0.1898;2.8E-6;;;;;34.100;6.615;0.1842;2.7E-6;34.100;7.838;0.2183;-3.7E-7
17.100;0.869;0.0242;2.4E-5;34.200;8.856;0.2467;2.2E-7;34.200;8.267;0.2303;-1.7E-6;34.200;6.847;0.1907;2.8E-6;;;;;34.200;6.734;0.1876;2.5E-6;34.200;7.885;0.2196;-3.7E-7
17.150;0.875;0.0244;;34.300;8.856;0.2467;2.3E-7;34.300;8.336;0.2322;-1.6E-6;34.300;6.879;0.1916;2.7E-6;;;;;34.300;6.849;0.1907;2.4E-6;34.300;7.944;0.2212;-3.5E-7
17.200;0.878;0.0245;2.4E-5;34.400;8.856;0.2467;1.9E-7;34.400;8.407;0.2342;-1.6E-6;34.400;6.913;0.1925;2.6E-6;;;;;34.400;6.893;0.1920;2.4E-6;34.400;8.003;0.2229;-3.9E-7
17.250;0.878;0.0245;;34.500;8.856;0.2467;1.8E-7;34.500;8.473;0.2360;-1.5E-6;34.500;6.954;0.1937;2.6E-6;;;;;34.500;6.891;0.1919;2.3E-6;34.500;8.063;0.2246;-3.3E-7
17.300;0.880;0.0245;2.4E-5;34.600;8.856;0.2467;1.9E-7;34.600;8.534;0.2377;-1.4E-6;34.600;6.998;0.1949;2.5E-6;;;;;34.600;6.890;0.1919;2.3E-6;34.600;8.121;0.2262;-3.6E-7
17.350;0.880;0.0245;;34.700;8.856;0.2467;2.1E-7;34.700;8.597;0.2394;-1.4E-6;34.700;7.034;0.1959;2.4E-6;;;;;34.700;6.891;0.1919;2.3E-6;34.700;8.167;0.2275;-3.0E-7
17.400;0.880;0.0245;2.4E-5;34.800;8.856;0.2467;2.2E-7;34.800;8.655;0.2411;-1.3E-6;34.800;7.059;0.1966;2.4E-6;;;;;34.800;6.891;0.1919;2.3E-6;34.800;8.195;0.2282;-3.2E-7
17.450;0.886;0.0247;;34.900;8.856;0.2467;2.6E-7;34.900;8.710;0.2426;-1.4E-6;34.900;7.081;0.1972;2.5E-6;;;;;34.900;6.891;0.1919;2.3E-6;34.900;8.198;0.2283;-3.8E-7
17.500;0.895;0.0249;2.3E-5;35.000;8.856;0.2467;2.6E-7;35.000;8.770;0.2443;-1.3E-6;35.000;7.103;0.1978;2.5E-6;;;;;35.000;6.891;0.1919;2.3E-6;35.000;8.198;0.2283;-3.7E-7
17.550;0.909;0.0253;;35.100;8.856;0.2467;2.3E-7;35.100;8.823;0.2457;-1.3E-6;35.100;7.130;0.1986;2.5E-6;;;;;35.100;6.891;0.1919;2.3E-6;35.100;8.196;0.2283;-3.9E-7
17.600;0.933;0.0260;2.3E-5;35.200;8.856;0.2467;2.4E-7;35.200;8.869;0.2470;-1.3E-6;35.200;7.174;0.1998;2.4E-6;;;;;35.200;6.891;0.1919;2.3E-6;35.200;8.196;0.2283;-3.5E-7
17.650;0.964;0.0269;;35.300;8.856;0.2467;2.2E-7;35.300;8.914;0.2483;-1.3E-6;35.300;7.212;0.2009;2.3E-6;;;;;35.300;6.891;0.1919;2.3E-6;35.300;8.196;0.2283;-4.0E-7
17.700;0.996;0.0277;2.3E-5;35.400;8.856;0.2467;2.2E-7;35.400;8.963;0.2496;-1.3E-6;35.400;7.234;0.2015;2.3E-6;;;;;35.400;6.891;0.1919;2.3E-6;35.400;8.196;0.2283;-3.6E-7
17.750;1.024;0.0285;;35.500;8.856;0.2467;2.3E-7;35.500;9.009;0.2509;-1.3E-6;35.500;7.241;0.2017;2.3E-6;;;;;35.500;6.891;0.1919;2.3E-6;35.500;8.196;0.2283;-2.8E-7
17.800;1.046;0.0291;2.2E-5;35.600;8.856;0.2467;;35.600;9.057;0.2523;-1.2E-6;35.600;7.238;0.2016;2.4E-6;;;;;35.600;6.891;0.1919;2.3E-6;35.600;8.196;0.2283;-3.2E-7
17.850;1.065;0.0297;;;;;;35.700;9.123;0.2541;-1.1E-6;35.700;7.237;0.2016;2.3E-6;;;;;35.700;6.891;0.1919;2.4E-6;35.700;8.196;0.2283;-3.4E-7
17.900;1.084;0.0302;2.2E-5;;;;;35.800;9.191;0.2560;-1.1E-6;35.800;7.237;0.2016;2.3E-6;;;;;35.800;6.874;0.1914;2.4E-6;35.800;8.196;0.2283;
17.950;1.106;0.0308;;;;;;35.900;9.254;0.2577;-1.1E-6;35.900;7.237;0.2016;2.3E-6;;;;;35.900;6.762;0.1883;2.5E-6;;;;
18.000;1.133;0.0315;2.2E-5;;;;;36.000;9.312;0.2594;-1.1E-6;36.000;7.235;0.2015;2.3E-6;;;;;36.000;6.586;0.1834;2.7E-6;;;;
18.050;1.156;0.0322;;;;;;36.100;9.360;0.2607;-1.0E-6;36.100;7.235;0.2015;2.3E-6;;;;;36.100;6.371;0.1774;3.0E-6;;;;
18.100;1.177;0.0328;2.1E-5;;;;;36.200;9.403;0.2619;-1.0E-6;36.200;7.237;0.2016;2.4E-6;;;;;36.200;6.123;0.1705;3.4E-6;;;;
18.150;1.189;0.0331;;;;;;36.300;9.444;0.2630;-9.7E-7;36.300;7.238;0.2016;2.4E-6;;;;;36.300;5.851;0.1630;;;;;
18.200;1.200;0.0334;2.1E-5;;;;;36.400;9.488;0.2643;-9.4E-7;36.400;7.238;0.2016;2.3E-6;;;;;;;;;;;;
18.250;1.216;0.0339;;;;;;36.500;9.541;0.2657;-9.4E-7;36.500;7.238;0.2016;2.3E-6;;;;;;;;;;;;
18.300;1.232;0.0343;2.1E-5;;;;;36.600;9.593;0.2672;-9.3E-7;36.600;7.238;0.2016;2.3E-6;;;;;;;;;;;;
18.350;1.244;0.0346;;;;;;36.700;9.643;0.2686;-8.6E-7;36.700;7.238;0.2016;2.3E-6;;;;;;;;;;;;
18.400;1.253;0.0349;2.1E-5;;;;;36.800;9.690;0.2699;-8.7E-7;36.800;7.238;0.2016;2.4E-6;;;;;;;;;;;;
18.450;1.264;0.0352;;;;;;36.900;9.730;0.2710;-8.2E-7;36.900;7.238;0.2016;2.3E-6;;;;;;;;;;;;
18.500;1.277;0.0356;2.1E-5;;;;;37.000;9.759;0.2718;-8.4E-7;37.000;7.238;0.2016;2.3E-6;;;;;;;;;;;;
18.550;1.288;0.0359;;;;;;37.100;9.799;0.2729;-8.1E-7;37.100;7.238;0.2016;2.3E-6;;;;;;;;;;;;
18.600;1.304;0.0363;2.0E-5;;;;;37.200;9.841;0.2741;-8.2E-7;37.200;7.238;0.2016;2.3E-6;;;;;;;;;;;;
18.650;1.321;0.0368;;;;;;37.300;9.891;0.2755;-8.4E-7;37.300;7.238;0.2016;2.3E-6;;;;;;;;;;;;
18.700;1.340;0.0373;2.0E-5;;;;;37.400;9.946;0.2770;-8.1E-7;37.400;7.238;0.2016;2.2E-6;;;;;;;;;;;;
18.750;1.357;0.0378;;;;;;37.500;9.998;0.2785;-7.7E-7;37.500;7.238;0.2016;2.2E-6;;;;;;;;;;;;
18.800;1.374;0.0383;2.0E-5;;;;;37.600;10.039;0.2796;-7.5E-7;37.600;7.238;0.2016;2.2E-6;;;;;;;;;;;;
18.850;1.393;0.0388;;;;;;37.700;10.072;0.2805;-7.8E-7;37.700;7.238;0.2016;;;;;;;;;;;;;
18.900;1.412;0.0393;1.9E-5;;;;;37.800;10.099;0.2813;-7.7E-7;;;;;;;;;;;;;;;;
18.950;1.428;0.0398;;;;;;37.900;10.133;0.2822;-7.4E-7;;;;;;;;;;;;;;;;
19.000;1.445;0.0402;1.9E-5;;;;;38.000;10.160;0.2830;-7.6E-7;;;;;;;;;;;;;;;;
19.050;1.461;0.0407;;;;;;38.100;10.171;0.2833;-7.5E-7;;;;;;;;;;;;;;;;
19.100;1.475;0.0411;1.9E-5;;;;;38.200;10.169;0.2832;-7.9E-7;;;;;;;;;;;;;;;;
19.150;1.489;0.0415;;;;;;38.300;10.169;0.2832;-8.0E-7;;;;;;;;;;;;;;;;
19.200;1.506;0.0420;1.9E-5;;;;;38.400;10.169;0.2832;-8.4E-7;;;;;;;;;;;;;;;;
19.250;1.525;0.0425;;;;;;38.500;10.171;0.2833;-8.2E-7;;;;;;;;;;;;;;;;
19.300;1.543;0.0430;1.8E-5;;;;;38.600;10.172;0.2833;-7.8E-7;;;;;;;;;;;;;;;;
19.350;1.560;0.0434;;;;;;38.700;10.174;0.2834;-7.5E-7;;;;;;;;;;;;;;;;
19.400;1.579;0.0440;1.8E-5;;;;;38.800;10.177;0.2835;-7.5E-7;;;;;;;;;;;;;;;;
19.450;1.598;0.0445;;;;;;38.900;10.179;0.2835;-7.8E-7;;;;;;;;;;;;;;;;
19.500;1.616;0.0450;1.8E-5;;;;;39.000;10.179;0.2835;-7.5E-7;;;;;;;;;;;;;;;;
19.550;1.638;0.0456;;;;;;39.100;10.179;0.2835;-7.6E-7;;;;;;;;;;;;;;;;
19.600;1.660;0.0462;1.7E-5;;;;;39.200;10.179;0.2835;-7.6E-7;;;;;;;;;;;;;;;;
19.650;1.684;0.0469;;;;;;39.300;10.179;0.2835;-7.8E-7;;;;;;;;;;;;;;;;
19.700;1.711;0.0476;1.7E-5;;;;;39.400;10.179;0.2835;-7.8E-7;;;;;;;;;;;;;;;;
19.750;1.740;0.0485;;;;;;39.500;10.179;0.2835;-7.8E-7;;;;;;;;;;;;;;;;
19.800;1.769;0.0493;1.6E-5;;;;;39.600;10.179;0.2835;-7.7E-7;;;;;;;;;;;;;;;;
19.850;1.797;0.0500;;;;;;39.700;10.179;0.2835;-7.8E-7;;;;;;;;;;;;;;;;
19.900;1.814;0.0505;1.6E-5;;;;;39.800;10.179;0.2835;-7.9E-7;;;;;;;;;;;;;;;;
19.950;1.841;0.0513;;;;;;39.900;10.179;0.2835;-8.0E-7;;;;;;;;;;;;;;;;
20.000;1.869;0.0521;1.5E-5;;;;;40.000;10.179;0.2835;-7.7E-7;;;;;;;;;;;;;;;;
20.050;1.898;0.0528;;;;;;40.100;10.179;0.2835;-7.5E-7;;;;;;;;;;;;;;;;
20.100;1.923;0.0535;1.5E-5;;;;;40.200;10.179;0.2835;-7.5E-7;;;;;;;;;;;;;;;;
20.150;1.945;0.0542;;;;;;40.300;10.179;0.2835;-7.4E-7;;;;;;;;;;;;;;;;
20.200;1.968;0.0548;1.4E-5;;;;;40.400;10.179;0.2835;-7.1E-7;;;;;;;;;;;;;;;;
20.250;1.992;0.0555;;;;;;40.500;10.179;0.2835;-6.9E-7;;;;;;;;;;;;;;;;
20.300;2.014;0.0561;1.4E-5;;;;;40.600;10.179;0.2835;-7.2E-7;;;;;;;;;;;;;;;;
20.350;2.036;0.0567;;;;;;40.700;10.179;0.2835;;;;;;;;;;;;;;;;;
20.400;2.053;0.0572;1.4E-5;;;;;;;;;;;;;;;;;;;;;;;;
20.450;2.069;0.0576;;;;;;;;;;;;;;;;;;;;;;;;;
20.500;2.084;0.0581;1.3E-5;;;;;;;;;;;;;;;;;;;;;;;;
20.550;2.100;0.0585;;;;;;;;;;;;;;;;;;;;;;;;;
20.600;2.114;0.0589;1.3E-5;;;;;;;;;;;;;;;;;;;;;;;;
20.650;2.130;0.0593;;;;;;;;;;;;;;;;;;;;;;;;;
20.700;2.149;0.0598;1.3E-5;;;;;;;;;;;;;;;;;;;;;;;;
20.750;2.165;0.0603;;;;;;;;;;;;;;;;;;;;;;;;;
20.800;2.183;0.0608;1.3E-5;;;;;;;;;;;;;;;;;;;;;;;;
20.850;2.202;0.0613;;;;;;;;;;;;;;;;;;;;;;;;;
20.900;2.218;0.0618;1.2E-5;;;;;;;;;;;;;;;;;;;;;;;;
20.950;2.235;0.0623;;;;;;;;;;;;;;;;;;;;;;;;;
21.000;2.256;0.0628;1.2E-5;;;;;;;;;;;;;;;;;;;;;;;;
21.050;2.276;0.0634;;;;;;;;;;;;;;;;;;;;;;;;;
21.100;2.298;0.0640;1.2E-5;;;;;;;;;;;;;;;;;;;;;;;;
21.150;2.322;0.0647;;;;;;;;;;;;;;;;;;;;;;;;;
21.200;2.342;0.0652;1.2E-5;;;;;;;;;;;;;;;;;;;;;;;;
21.250;2.356;0.0656;;;;;;;;;;;;;;;;;;;;;;;;;
21.300;2.370;0.0660;1.1E-5;;;;;;;;;;;;;;;;;;;;;;;;
21.350;2.386;0.0665;;;;;;;;;;;;;;;;;;;;;;;;;
21.400;2.408;0.0671;1.1E-5;;;;;;;;;;;;;;;;;;;;;;;;
21.450;2.436;0.0679;;;;;;;;;;;;;;;;;;;;;;;;;
21.500;2.468;0.0687;1.1E-5;;;;;;;;;;;;;;;;;;;;;;;;
21.550;2.494;0.0695;;;;;;;;;;;;;;;;;;;;;;;;;
21.600;2.523;0.0703;1.0E-5;;;;;;;;;;;;;;;;;;;;;;;;
21.650;2.551;0.0710;;;;;;;;;;;;;;;;;;;;;;;;;
21.700;2.581;0.0719;1.0E-5;;;;;;;;;;;;;;;;;;;;;;;;
21.750;2.611;0.0727;;;;;;;;;;;;;;;;;;;;;;;;;
21.800;2.641;0.0735;9.6E-6;;;;;;;;;;;;;;;;;;;;;;;;
21.850;2.661;0.0741;;;;;;;;;;;;;;;;;;;;;;;;;
21.900;2.677;0.0745;9.5E-6;;;;;;;;;;;;;;;;;;;;;;;;
21.950;2.697;0.0751;;;;;;;;;;;;;;;;;;;;;;;;;
22.000;2.719;0.0757;9.2E-6;;;;;;;;;;;;;;;;;;;;;;;;
22.050;2.738;0.0763;;;;;;;;;;;;;;;;;;;;;;;;;
22.100;2.757;0.0768;9.0E-6;;;;;;;;;;;;;;;;;;;;;;;;
22.150;2.771;0.0772;;;;;;;;;;;;;;;;;;;;;;;;;
22.200;2.787;0.0776;8.9E-6;;;;;;;;;;;;;;;;;;;;;;;;
22.250;2.807;0.0782;;;;;;;;;;;;;;;;;;;;;;;;;
22.300;2.827;0.0787;8.7E-6;;;;;;;;;;;;;;;;;;;;;;;;
22.350;2.845;0.0792;;;;;;;;;;;;;;;;;;;;;;;;;
22.400;2.862;0.0797;8.5E-6;;;;;;;;;;;;;;;;;;;;;;;;
22.450;2.882;0.0803;;;;;;;;;;;;;;;;;;;;;;;;;
22.500;2.903;0.0808;8.2E-6;;;;;;;;;;;;;;;;;;;;;;;;
22.550;2.926;0.0815;;;;;;;;;;;;;;;;;;;;;;;;;
22.600;2.947;0.0821;8.0E-6;;;;;;;;;;;;;;;;;;;;;;;;
22.650;2.966;0.0826;;;;;;;;;;;;;;;;;;;;;;;;;
22.700;2.986;0.0832;7.8E-6;;;;;;;;;;;;;;;;;;;;;;;;
22.750;3.007;0.0837;;;;;;;;;;;;;;;;;;;;;;;;;
22.800;3.030;0.0844;7.6E-6;;;;;;;;;;;;;;;;;;;;;;;;
22.850;3.054;0.0850;;;;;;;;;;;;;;;;;;;;;;;;;
22.900;3.082;0.0858;7.3E-6;;;;;;;;;;;;;;;;;;;;;;;;
22.950;3.107;0.0865;;;;;;;;;;;;;;;;;;;;;;;;;
23.000;3.129;0.0871;7.1E-6;;;;;;;;;;;;;;;;;;;;;;;;
23.050;3.151;0.0878;;;;;;;;;;;;;;;;;;;;;;;;;
23.100;3.175;0.0884;7.0E-6;;;;;;;;;;;;;;;;;;;;;;;;
23.150;3.195;0.0890;;;;;;;;;;;;;;;;;;;;;;;;;
23.200;3.214;0.0895;6.8E-6;;;;;;;;;;;;;;;;;;;;;;;;
23.250;3.237;0.0902;;;;;;;;;;;;;;;;;;;;;;;;;
23.300;3.264;0.0909;6.6E-6;;;;;;;;;;;;;;;;;;;;;;;;
23.350;3.291;0.0917;;;;;;;;;;;;;;;;;;;;;;;;;
23.400;3.314;0.0923;6.4E-6;;;;;;;;;;;;;;;;;;;;;;;;
23.450;3.338;0.0930;;;;;;;;;;;;;;;;;;;;;;;;;
23.500;3.366;0.0938;6.2E-6;;;;;;;;;;;;;;;;;;;;;;;;
23.550;3.393;0.0945;;;;;;;;;;;;;;;;;;;;;;;;;
23.600;3.416;0.0952;6.0E-6;;;;;;;;;;;;;;;;;;;;;;;;
23.650;3.440;0.0958;;;;;;;;;;;;;;;;;;;;;;;;;
23.700;3.459;0.0963;5.8E-6;;;;;;;;;;;;;;;;;;;;;;;;
23.750;3.475;0.0968;;;;;;;;;;;;;;;;;;;;;;;;;
23.800;3.493;0.0973;5.8E-6;;;;;;;;;;;;;;;;;;;;;;;;
23.850;3.512;0.0978;;;;;;;;;;;;;;;;;;;;;;;;;
23.900;3.523;0.0981;5.7E-6;;;;;;;;;;;;;;;;;;;;;;;;
23.950;3.534;0.0984;;;;;;;;;;;;;;;;;;;;;;;;;
24.000;3.542;0.0987;5.6E-6;;;;;;;;;;;;;;;;;;;;;;;;
24.050;3.553;0.0990;;;;;;;;;;;;;;;;;;;;;;;;;
24.100;3.564;0.0993;5.5E-6;;;;;;;;;;;;;;;;;;;;;;;;
24.150;3.575;0.0996;;;;;;;;;;;;;;;;;;;;;;;;;
24.200;3.586;0.0999;5.4E-6;;;;;;;;;;;;;;;;;;;;;;;;
24.250;3.599;0.1002;;;;;;;;;;;;;;;;;;;;;;;;;
24.300;3.618;0.1008;5.4E-6;;;;;;;;;;;;;;;;;;;;;;;;
24.350;3.640;0.1014;;;;;;;;;;;;;;;;;;;;;;;;;
24.400;3.660;0.1019;5.2E-6;;;;;;;;;;;;;;;;;;;;;;;;
24.450;3.682;0.1025;;;;;;;;;;;;;;;;;;;;;;;;;
24.500;3.701;0.1031;5.0E-6;;;;;;;;;;;;;;;;;;;;;;;;
24.550;3.718;0.1036;;;;;;;;;;;;;;;;;;;;;;;;;
24.600;3.734;0.1040;5.0E-6;;;;;;;;;;;;;;;;;;;;;;;;
24.650;3.745;0.1043;;;;;;;;;;;;;;;;;;;;;;;;;
24.700;3.751;0.1045;4.9E-6;;;;;;;;;;;;;;;;;;;;;;;;
24.750;3.757;0.1046;;;;;;;;;;;;;;;;;;;;;;;;;
24.800;3.760;0.1047;4.9E-6;;;;;;;;;;;;;;;;;;;;;;;;
24.850;3.770;0.1050;;;;;;;;;;;;;;;;;;;;;;;;;
24.900;3.787;0.1055;4.8E-6;;;;;;;;;;;;;;;;;;;;;;;;
24.950;3.812;0.1062;;;;;;;;;;;;;;;;;;;;;;;;;
25.000;3.834;0.1068;4.6E-6;;;;;;;;;;;;;;;;;;;;;;;;
25.050;3.853;0.1073;;;;;;;;;;;;;;;;;;;;;;;;;
25.100;3.864;0.1076;4.5E-6;;;;;;;;;;;;;;;;;;;;;;;;
25.150;3.870;0.1078;;;;;;;;;;;;;;;;;;;;;;;;;
25.200;3.878;0.1080;4.5E-6;;;;;;;;;;;;;;;;;;;;;;;;
25.250;3.892;0.1084;;;;;;;;;;;;;;;;;;;;;;;;;
25.300;3.905;0.1088;4.5E-6;;;;;;;;;;;;;;;;;;;;;;;;
25.350;3.913;0.1090;;;;;;;;;;;;;;;;;;;;;;;;;
25.400;3.921;0.1092;4.5E-6;;;;;;;;;;;;;;;;;;;;;;;;
25.450;3.929;0.1094;;;;;;;;;;;;;;;;;;;;;;;;;
25.500;3.938;0.1097;4.4E-6;;;;;;;;;;;;;;;;;;;;;;;;
25.550;3.947;0.1099;;;;;;;;;;;;;;;;;;;;;;;;;
25.600;3.962;0.1103;4.3E-6;;;;;;;;;;;;;;;;;;;;;;;;
25.650;3.976;0.1107;;;;;;;;;;;;;;;;;;;;;;;;;
25.700;3.990;0.1111;4.2E-6;;;;;;;;;;;;;;;;;;;;;;;;
25.750;4.006;0.1116;;;;;;;;;;;;;;;;;;;;;;;;;
25.800;4.015;0.1118;4.2E-6;;;;;;;;;;;;;;;;;;;;;;;;
25.850;4.028;0.1122;;;;;;;;;;;;;;;;;;;;;;;;;
25.900;4.039;0.1125;4.2E-6;;;;;;;;;;;;;;;;;;;;;;;;
25.950;4.051;0.1128;;;;;;;;;;;;;;;;;;;;;;;;;
26.000;4.065;0.1132;4.1E-6;;;;;;;;;;;;;;;;;;;;;;;;
26.050;4.079;0.1136;;;;;;;;;;;;;;;;;;;;;;;;;
26.100;4.093;0.1140;4.1E-6;;;;;;;;;;;;;;;;;;;;;;;;
26.150;4.108;0.1144;;;;;;;;;;;;;;;;;;;;;;;;;
26.200;4.125;0.1149;3.9E-6;;;;;;;;;;;;;;;;;;;;;;;;
26.250;4.144;0.1154;;;;;;;;;;;;;;;;;;;;;;;;;
26.300;4.164;0.1160;3.9E-6;;;;;;;;;;;;;;;;;;;;;;;;
26.350;4.181;0.1165;;;;;;;;;;;;;;;;;;;;;;;;;
26.400;4.199;0.1169;3.8E-6;;;;;;;;;;;;;;;;;;;;;;;;
26.450;4.219;0.1175;;;;;;;;;;;;;;;;;;;;;;;;;
26.500;4.244;0.1182;3.7E-6;;;;;;;;;;;;;;;;;;;;;;;;
26.550;4.271;0.1190;;;;;;;;;;;;;;;;;;;;;;;;;
26.600;4.291;0.1195;3.6E-6;;;;;;;;;;;;;;;;;;;;;;;;
26.650;4.302;0.1198;;;;;;;;;;;;;;;;;;;;;;;;;
26.700;4.313;0.1201;3.5E-6;;;;;;;;;;;;;;;;;;;;;;;;
26.750;4.323;0.1204;;;;;;;;;;;;;;;;;;;;;;;;;
26.800;4.334;0.1207;3.5E-6;;;;;;;;;;;;;;;;;;;;;;;;
26.850;4.345;0.1210;;;;;;;;;;;;;;;;;;;;;;;;;
26.900;4.359;0.1214;3.4E-6;;;;;;;;;;;;;;;;;;;;;;;;
26.950;4.373;0.1218;;;;;;;;;;;;;;;;;;;;;;;;;
27.000;4.389;0.1222;3.3E-6;;;;;;;;;;;;;;;;;;;;;;;;
27.050;4.403;0.1226;;;;;;;;;;;;;;;;;;;;;;;;;
27.100;4.419;0.1231;3.3E-6;;;;;;;;;;;;;;;;;;;;;;;;
27.150;4.431;0.1234;;;;;;;;;;;;;;;;;;;;;;;;;
27.200;4.444;0.1238;3.3E-6;;;;;;;;;;;;;;;;;;;;;;;;
27.250;4.453;0.1240;;;;;;;;;;;;;;;;;;;;;;;;;
27.300;4.463;0.1243;3.3E-6;;;;;;;;;;;;;;;;;;;;;;;;
27.350;4.472;0.1246;;;;;;;;;;;;;;;;;;;;;;;;;
27.400;4.478;0.1247;3.3E-6;;;;;;;;;;;;;;;;;;;;;;;;
27.450;4.488;0.1250;;;;;;;;;;;;;;;;;;;;;;;;;
27.500;4.499;0.1253;3.3E-6;;;;;;;;;;;;;;;;;;;;;;;;
27.550;4.511;0.1256;;;;;;;;;;;;;;;;;;;;;;;;;
27.600;4.524;0.1260;3.2E-6;;;;;;;;;;;;;;;;;;;;;;;;
27.650;4.536;0.1263;;;;;;;;;;;;;;;;;;;;;;;;;
27.700;4.551;0.1267;3.2E-6;;;;;;;;;;;;;;;;;;;;;;;;
27.750;4.563;0.1271;;;;;;;;;;;;;;;;;;;;;;;;;
27.800;4.574;0.1274;3.1E-6;;;;;;;;;;;;;;;;;;;;;;;;
27.850;4.587;0.1277;;;;;;;;;;;;;;;;;;;;;;;;;
27.900;4.598;0.1281;3.1E-6;;;;;;;;;;;;;;;;;;;;;;;;
27.950;4.612;0.1284;;;;;;;;;;;;;;;;;;;;;;;;;
28.000;4.623;0.1288;3.0E-6;;;;;;;;;;;;;;;;;;;;;;;;
28.050;4.632;0.1290;;;;;;;;;;;;;;;;;;;;;;;;;
28.100;4.640;0.1292;3.0E-6;;;;;;;;;;;;;;;;;;;;;;;;
28.150;4.650;0.1295;;;;;;;;;;;;;;;;;;;;;;;;;
28.200;4.662;0.1298;3.0E-6;;;;;;;;;;;;;;;;;;;;;;;;
28.250;4.678;0.1303;;;;;;;;;;;;;;;;;;;;;;;;;
28.300;4.694;0.1307;2.9E-6;;;;;;;;;;;;;;;;;;;;;;;;
28.350;4.711;0.1312;;;;;;;;;;;;;;;;;;;;;;;;;
28.400;4.730;0.1317;2.8E-6;;;;;;;;;;;;;;;;;;;;;;;;
28.450;4.752;0.1323;;;;;;;;;;;;;;;;;;;;;;;;;
28.500;4.775;0.1330;2.8E-6;;;;;;;;;;;;;;;;;;;;;;;;
28.550;4.796;0.1336;;;;;;;;;;;;;;;;;;;;;;;;;
28.600;4.813;0.1340;2.6E-6;;;;;;;;;;;;;;;;;;;;;;;;
28.650;4.832;0.1346;;;;;;;;;;;;;;;;;;;;;;;;;
28.700;4.854;0.1352;2.6E-6;;;;;;;;;;;;;;;;;;;;;;;;
28.750;4.877;0.1358;;;;;;;;;;;;;;;;;;;;;;;;;
28.800;4.898;0.1364;2.6E-6;;;;;;;;;;;;;;;;;;;;;;;;
28.850;4.913;0.1368;;;;;;;;;;;;;;;;;;;;;;;;;
28.900;4.931;0.1373;2.5E-6;;;;;;;;;;;;;;;;;;;;;;;;
28.950;4.951;0.1379;;;;;;;;;;;;;;;;;;;;;;;;;
29.000;4.970;0.1384;2.4E-6;;;;;;;;;;;;;;;;;;;;;;;;
29.050;4.989;0.1389;;;;;;;;;;;;;;;;;;;;;;;;;
29.100;5.008;0.1395;2.4E-6;;;;;;;;;;;;;;;;;;;;;;;;
29.150;5.027;0.1400;;;;;;;;;;;;;;;;;;;;;;;;;
29.200;5.045;0.1405;2.3E-6;;;;;;;;;;;;;;;;;;;;;;;;
29.250;5.066;0.1411;;;;;;;;;;;;;;;;;;;;;;;;;
29.300;5.083;0.1416;2.3E-6;;;;;;;;;;;;;;;;;;;;;;;;
29.350;5.099;0.1420;;;;;;;;;;;;;;;;;;;;;;;;;
29.400;5.116;0.1425;2.3E-6;;;;;;;;;;;;;;;;;;;;;;;;
29.450;5.132;0.1429;;;;;;;;;;;;;;;;;;;;;;;;;
29.500;5.143;0.1432;2.2E-6;;;;;;;;;;;;;;;;;;;;;;;;
29.550;5.152;0.1435;;;;;;;;;;;;;;;;;;;;;;;;;
29.600;5.163;0.1438;2.2E-6;;;;;;;;;;;;;;;;;;;;;;;;
29.650;5.176;0.1442;;;;;;;;;;;;;;;;;;;;;;;;;
29.700;5.187;0.1445;2.2E-6;;;;;;;;;;;;;;;;;;;;;;;;
29.750;5.195;0.1447;;;;;;;;;;;;;;;;;;;;;;;;;
29.800;5.198;0.1448;2.2E-6;;;;;;;;;;;;;;;;;;;;;;;;
29.850;5.199;0.1448;;;;;;;;;;;;;;;;;;;;;;;;;
29.900;5.204;0.1449;2.2E-6;;;;;;;;;;;;;;;;;;;;;;;;
29.950;5.213;0.1452;;;;;;;;;;;;;;;;;;;;;;;;;
30.000;5.221;0.1454;2.1E-6;;;;;;;;;;;;;;;;;;;;;;;;
30.050;5.231;0.1457;;;;;;;;;;;;;;;;;;;;;;;;;
30.100;5.242;0.1460;2.1E-6;;;;;;;;;;;;;;;;;;;;;;;;
30.150;5.253;0.1463;;;;;;;;;;;;;;;;;;;;;;;;;
30.200;5.267;0.1467;2.1E-6;;;;;;;;;;;;;;;;;;;;;;;;
30.250;5.281;0.1471;;;;;;;;;;;;;;;;;;;;;;;;;
30.300;5.295;0.1475;2.1E-6;;;;;;;;;;;;;;;;;;;;;;;;
30.350;5.309;0.1479;;;;;;;;;;;;;;;;;;;;;;;;;
30.400;5.320;0.1482;2.0E-6;;;;;;;;;;;;;;;;;;;;;;;;
30.450;5.328;0.1484;;;;;;;;;;;;;;;;;;;;;;;;;
30.500;5.333;0.1485;2.0E-6;;;;;;;;;;;;;;;;;;;;;;;;
30.550;5.338;0.1487;;;;;;;;;;;;;;;;;;;;;;;;;
30.600;5.341;0.1487;2.0E-6;;;;;;;;;;;;;;;;;;;;;;;;
30.650;5.341;0.1487;;;;;;;;;;;;;;;;;;;;;;;;;
30.700;5.342;0.1488;2.0E-6;;;;;;;;;;;;;;;;;;;;;;;;
30.750;5.342;0.1488;;;;;;;;;;;;;;;;;;;;;;;;;
30.800;5.342;0.1488;1.9E-6;;;;;;;;;;;;;;;;;;;;;;;;
30.850;5.342;0.1488;;;;;;;;;;;;;;;;;;;;;;;;;
30.900;5.342;0.1488;2.0E-6;;;;;;;;;;;;;;;;;;;;;;;;
30.950;5.342;0.1488;;;;;;;;;;;;;;;;;;;;;;;;;
31.000;5.342;0.1488;1.9E-6;;;;;;;;;;;;;;;;;;;;;;;;
31.050;5.342;0.1488;;;;;;;;;;;;;;;;;;;;;;;;;
31.100;5.342;0.1488;2.0E-6;;;;;;;;;;;;;;;;;;;;;;;;
31.150;5.342;0.1488;;;;;;;;;;;;;;;;;;;;;;;;;
31.200;5.341;0.1487;1.9E-6;;;;;;;;;;;;;;;;;;;;;;;;
31.250;5.341;0.1487;;;;;;;;;;;;;;;;;;;;;;;;;
31.300;5.341;0.1487;1.9E-6;;;;;;;;;;;;;;;;;;;;;;;;
31.350;5.341;0.1487;;;;;;;;;;;;;;;;;;;;;;;;;
31.400;5.341;0.1487;1.9E-6;;;;;;;;;;;;;;;;;;;;;;;;
31.450;5.341;0.1487;;;;;;;;;;;;;;;;;;;;;;;;;
31.500;5.341;0.1487;1.9E-6;;;;;;;;;;;;;;;;;;;;;;;;
31.550;5.341;0.1487;;;;;;;;;;;;;;;;;;;;;;;;;
31.600;5.341;0.1487;1.9E-6;;;;;;;;;;;;;;;;;;;;;;;;
31.650;5.341;0.1487;;;;;;;;;;;;;;;;;;;;;;;;;
31.700;5.341;0.1487;1.9E-6;;;;;;;;;;;;;;;;;;;;;;;;
31.750;5.341;0.1487;;;;;;;;;;;;;;;;;;;;;;;;;
31.800;5.341;0.1487;;;;;;;;;;;;;;;;;;;;;;;;;
31.850;5.342;0.1488;;;;;;;;;;;;;;;;;;;;;;;;;
